Acq. time (s)=	4
Accumulations=	3
Range=	Off
Autofocus=	Off
SWIFT=	Off
AutoExposure=	Off
Spike filter=	Multiple accum.
Delay time (s)=	0
Binning=	1
Readout mode=	Signal
DeNoise=	Standard
ICS correction=	On
Dark correction=	Off
Inst. Process=	On
Instrument=	LabRAM S3000
Detector=	Synapse
Objective=	x100
Grating=	1800
ND Filter=	25%
Laser (nm)=	632.81 
Spectro (cm-¹)=	520.984
Slit=	100.021
Hole=	1000.03
Microscope=	Principal
StageXY=	Märzhauser
StageZ=	Märzhauser
X (µm)=	-20
Y (µm)=	-20.1
Z (µm)=	-2636.7
Project=	
Sample=	
Site=	
Title=	SOP_200nm_SPIS_p0.30_map
Remark=	
Date=	17.06.2019 14:35
Operator=	
Acquired=	17.06.2019 14:35:02
Base:Sub=	17.06.2019 14:36:51
		358.033	358.357	358.684	359.008	359.333	359.659	359.983	360.309	360.634	360.959	361.285	361.609	361.934	362.26	362.584	362.908	363.233	363.559	363.883	364.208	364.533	364.858	365.182	365.507	365.832	366.157	366.481	366.805	367.13	367.455	367.78	368.104	368.428	368.752	369.078	369.402	369.726	370.051	370.375	370.7	371.024	371.348	371.673	371.997	372.321	372.645	372.969	373.294	373.618	373.942	374.266	374.59	374.914	375.238	375.562	375.886	376.21	376.534	376.858	377.182	377.505	377.829	378.153	378.477	378.801	379.124	379.448	379.772	380.096	380.419	380.743	381.067	381.391	381.714	382.038	382.362	382.685	383.009	383.332	383.656	383.98	384.302	384.625	384.949	385.272	385.596	385.919	386.243	386.566	386.888	387.212	387.535	387.859	388.182	388.504	388.827	389.151	389.474	389.797	390.119	390.443	390.766	391.089	391.412	391.734	392.057	392.381	392.704	393.026	393.349	393.672	393.994	394.317	394.64	394.963	395.285	395.608	395.931	396.253	396.576	396.899	397.22	397.543	397.865	398.188	398.511	398.832	399.155	399.478	399.8	400.122	400.444	400.767	401.088	401.411	401.734	402.055	402.378	402.699	403.022	403.344	403.666	403.988	404.31	404.632	404.954	405.276	405.598	405.919	406.242	406.563	406.886	407.207	407.53	407.851	408.173	408.494	408.815	409.138	409.459	409.782	410.103	410.424	410.746	411.067	411.39	411.71	412.031	412.354	412.675	412.996	413.318	413.639	413.96	414.282	414.603	414.924	415.246	415.567	415.888	416.208	416.531	416.851	417.172	417.494	417.815	418.136	418.456	418.779	419.099	419.42	419.741	420.061	420.383	420.704	421.024	421.345	421.665	421.986	422.308	422.629	422.949	423.27	423.59	423.91	424.232	424.553	424.873	425.194	425.514	425.834	426.155	426.475	426.795	427.116	427.436	427.756	428.078	428.398	428.719	429.039	429.359	429.679	430	430.32	430.64	430.96	431.28	431.6	431.921	432.241	432.561	432.881	433.201	433.52	433.84	434.16	434.48	434.8	435.12	435.44	435.76	436.08	436.4	436.719	437.038	437.358	437.678	437.998	438.317	438.637	438.957	439.276	439.595	439.915	440.235	440.555	440.873	441.193	441.512	441.832	442.152	442.47	442.79	443.109	443.429	443.747	444.067	444.387	444.706	445.024	445.344	445.663	445.982	446.301	446.621	446.939	447.258	447.578	447.896	448.215	448.534	448.852	449.172	449.491	449.809	450.129	450.448	450.766	451.085	451.403	451.722	452.042	452.36	452.679	452.997	453.316	453.634	453.953	454.271	454.59	454.908	455.227	455.544	455.863	456.181	456.5	456.818	457.137	457.455	457.774	458.091	458.41	458.728	459.047	459.364	459.683	460.001	460.318	460.637	460.955	461.274	461.591	461.909	462.228	462.545	462.862	463.181	463.499	463.817	464.135	464.452	464.771	465.088	465.405	465.723	466.041	466.359	466.676	466.995	467.312	467.629	467.946	468.265	468.582	468.899	469.216	469.535	469.852	470.169	470.486	470.805	471.122	471.439	471.756	472.073	472.391	472.708	473.025	473.342	473.659	473.976	474.293	474.611	474.928	475.245	475.562	475.879	476.196	476.513	476.83	477.146	477.463	477.781	478.098	478.415	478.732	479.048	479.365	479.682	479.999	480.315	480.632	480.949	481.265	481.582	481.898	482.215	482.532	482.848	483.165	483.481	483.798	484.114	484.429	484.746	485.062	485.379	485.695	486.012	486.328	486.645	486.961	487.277	487.592	487.909	488.225	488.542	488.858	489.174	489.489	489.805	490.122	490.438	490.754	491.07	491.385	491.701	492.018	492.334	492.648	492.965	493.281	493.597	493.912	494.228	494.544	494.86	495.175	495.491	495.807	496.121	496.437	496.753	497.069	497.384	497.7	498.016	498.33	498.646	498.961	499.277	499.592	499.907	500.223	500.539	500.853	501.169	501.483	501.799	502.113	502.429	502.745	503.059	503.375	503.689	504.005	504.319	504.635	504.949	505.265	505.579	505.895	506.209	506.524	506.838	507.154	507.468	507.784	508.098	508.413	508.727	509.042	509.357	509.671	509.987	510.301	510.616	510.93	511.244	511.559	511.873	512.187	512.503	512.816	513.132	513.446	513.76	514.075	514.389	514.703	515.016	515.332	515.645	515.959	516.274	516.588	516.902	517.216	517.531	517.844	518.158	518.472	518.787	519.101	519.414	519.728	520.043	520.357	520.67	520.984	521.297	521.612	521.926	522.239	522.553	522.866	523.18	523.493	523.808	524.122	524.435	524.748	525.062	525.375	525.689	526.002	526.315	526.629	526.943	527.257	527.57	527.883	528.197	528.51	528.823	529.136	529.45	529.763	530.076	530.389	530.703	531.016	531.329	531.642	531.955	532.268	532.581	532.894	533.206	533.519	533.832	534.145	534.458	534.771	535.084	535.397	535.71	536.023	536.335	536.648	536.961	537.273	537.586	537.899	538.212	538.524	538.836	539.149	539.462	539.775	540.086	540.399	540.712	541.025	541.336	541.649	541.961	542.274	542.585	542.898	543.211	543.523	543.835	544.147	544.46	544.771	545.084	545.396	545.709	546.02	546.332	546.645	546.956	547.268	547.58	547.892	548.204	548.516	548.828	549.14	549.451	549.764	550.075	550.387	550.698	551.01	551.323	551.634	551.946	552.257	552.569	552.88	553.192	553.503	553.815	554.126	554.438	554.749	555.061	555.372	555.684	555.995	556.307	556.618	556.928	557.24	557.551	557.863	558.174	558.486	558.797	559.107	559.419	559.73	560.042	560.352	560.663	560.975	561.285	561.596	561.908	562.218	562.529	562.84	563.151	563.461	563.773	564.083	564.394	564.704	565.016	565.326	565.637	565.947	566.259	566.569	566.879	567.19	567.501	567.811	568.122	568.432	568.742	569.054	569.364	569.674	569.984	570.294	570.604	570.915	571.226	571.536	571.846	572.156	572.466	572.776	573.086	573.396	573.708	574.018	574.328	574.638	574.948	575.258	575.568	575.878	576.187	576.497	576.807	577.117	577.427	577.737	578.047	578.356	578.666	578.976	579.286	579.596	579.905	580.215	580.525	580.834	581.144	581.452	581.762	582.072	582.381	582.691	583.001	583.31	583.62	583.93	584.238	584.547	584.857	585.166	585.476	585.785	586.095	586.403	586.712	587.022	587.331	587.641	587.949	588.258	588.568	588.877	589.185	589.494	589.804	590.113	590.421	590.73	591.039	591.347	591.657	591.966	592.275	592.583	592.892	593.201	593.509	593.818	594.128	594.435	594.744	595.052	595.361	595.67	595.978	596.287	596.596	596.904	597.213	597.521	597.83	598.137	598.446	598.755	599.063	599.372	599.679	599.988	600.296	600.605	600.912	601.221	601.528	601.837	602.145	602.453	602.761	603.07	603.377	603.684	603.993	604.301	604.609	604.917	605.225	605.533	605.84	606.149	606.456	606.763	607.072	607.379	607.688	607.995	608.302	608.611	608.918	609.225	609.533	609.841	610.148	610.455	610.763	611.07	611.377	611.686	611.993	612.3	612.607	612.915	613.222	613.529	613.836	614.145	614.452	614.759	615.065	615.372	615.681	615.988	616.294	616.601	616.908	617.215	617.522	617.83	618.137	618.443	618.75	619.057	619.364	619.67	619.977	620.284	620.592	620.899	621.205	621.512	621.819	622.125	622.432	622.738	623.045	623.352	623.658	623.965	624.271	624.578	624.884	625.191	625.497	625.804	626.11	626.417	626.723	627.03	627.336	627.641	627.947	628.254	628.56	628.867	629.173	629.479	629.786	630.092	630.398	630.703	631.009	631.316	631.622	631.928	632.234	632.539	632.845	633.151	633.458	633.764	634.068	634.375	634.681	634.987	635.292	635.598	635.904	636.21	636.514	636.82	637.126	637.432	637.737	638.043	638.349	638.654	638.96	639.265	639.57	639.876	640.182	640.486	640.792	641.097	641.402	641.708	642.013	642.319	642.624	642.929	643.234	643.539	643.845	644.149	644.455	644.759	645.065	645.37	645.675	645.98	646.285	646.59	646.894	647.2	647.504	647.81	648.114	648.42	648.724	649.028	649.333	649.638	649.943	650.247	650.553	650.857	651.161	651.466	651.77	652.076	652.38	652.684	652.989	653.293	653.597	653.902	654.206	654.51	654.815	655.119	655.423	655.729	656.032	656.336	656.641	656.945	657.249	657.553	657.858	658.162	658.466	658.769	659.074	659.378	659.682	659.986	660.289	660.594	660.898	661.202	661.505	661.809	662.114	662.418	662.721	663.025	663.328	663.632	663.935	664.239	664.544	664.847	665.151	665.454	665.758	666.061	666.365	666.668	666.972	667.275	667.578	667.882	668.185	668.489	668.792	669.095	669.398	669.702	670.005	670.308	670.612	670.915	671.218	671.521	671.825	672.128	672.431	672.734	673.037	673.341	673.644	673.947	674.249	674.552	674.855	675.158	675.461	675.764	676.067	676.369	676.672	676.975	677.278	677.581	677.884	678.185	678.488	678.791	679.094
-20	-20.0732	43.2641	42.2618	40.9702	39.6693	38.3231	36.9503	35.514	34.0921	32.6471	31.297	29.9905	28.8393	27.9289	26.8652	25.7375	24.6351	23.4359	22.3284	21.2884	20.2618	19.2843	18.3703	17.5234	16.7119	15.9269	15.2321	14.5211	13.8117	13.206	12.7111	12.2121	11.7431	11.1866	10.5729	10.0087	9.4533	8.89285	8.40062	8.02504	7.60208	7.2067	6.83443	6.41955	5.91128	5.46076	4.9404	4.41904	3.99	3.59032	3.16201	2.7034	2.40398	2.23102	2.12338	2.0139	1.86642	1.8336	1.71528	1.62582	1.41224	1.23751	1.00631	0.687119	0.322385	-0.0213289	-0.260432	-0.409993	-0.495863	-0.580872	-0.626863	-0.634967	-0.551686	-0.456603	-0.382495	-0.29682	-0.0972558	0.0713424	0.160795	0.287949	0.35117	0.407241	0.459483	0.479607	0.509	0.541861	0.488033	0.32118	0.0969971	-0.114643	-0.252727	-0.317771	-0.392465	-0.320735	-0.246335	0.000250626	0.406716	0.798989	1.10698	1.4057	1.66379	1.71303	1.66669	1.52613	1.48141	1.49669	1.494	1.53055	1.62976	1.79609	1.98413	1.79663	1.69023	1.71075	1.68671	1.77696	1.70266	1.70193	1.73794	1.68518	1.57283	1.32122	1.03461	0.845136	0.863713	0.871963	0.89965	1.02932	1.27656	1.53819	1.85289	2.33021	3.02939	3.42254	3.56553	3.56514	3.3461	3.02256	2.9002	2.66715	2.35671	2.0721	1.84663	1.88825	2.00924	2.08923	2.23146	2.38388	2.66093	3.04244	3.41742	3.82109	4.25643	4.68681	5.11542	5.40754	5.59995	5.84354	6.1244	6.40429	6.70321	7.06318	7.54683	8.00229	8.42123	8.95638	9.58333	10.1055	10.687	11.2513	11.7267	12.2383	12.6523	12.8912	13.2949	13.6203	13.8648	13.9737	14.0017	13.9183	13.7878	13.6776	13.4938	13.2808	13.0115	12.7818	12.5376	12.3069	12.0626	11.8313	11.4869	11.2493	11.0273	10.8278	10.6083	10.4867	10.4685	10.496	10.5264	10.6939	10.7743	10.8427	10.8814	10.9835	10.8271	10.7026	10.618	10.5692	10.4774	10.3616	10.1945	10.0534	9.90896	9.78533	9.68519	9.62953	9.68556	9.66549	9.58827	9.49592	9.34945	9.18717	8.99483	8.68998	8.40453	8.26072	8.13748	8.08227	7.91998	7.76324	7.6852	7.5414	7.50569	7.49136	7.48437	7.44148	7.31825	7.05403	6.76317	6.52353	6.30175	6.08775	5.9306	5.7401	5.5504	5.27459	5.0515	4.76949	4.50947	4.22619	3.9857	3.73143	3.55356	3.34403	3.09938	2.88641	2.78497	2.67201	2.62683	2.60694	2.648	2.73155	3.00361	3.15668	3.21228	3.31753	3.30015	3.19062	3.05972	2.84982	2.59935	2.3014	1.96662	1.6087	1.38964	1.18738	1.05125	0.907616	0.761572	0.62196	0.577916	0.597758	0.500869	0.399107	0.33542	0.288531	0.263426	0.235722	0.293599	0.484315	0.665829	0.779439	0.885179	0.921706	0.988348	0.94269	0.899396	0.725499	0.4336	0.232892	-0.0238552	-0.198258	-0.316464	-0.262746	-0.536592	-0.778851	-1.15249	-1.66668	-1.57285	-1.00789	-0.703738	-0.0287572	0.263572	0.590911	0.557944	0.589544	0.598907	0.524397	0.600644	0.541322	0.288024	0.0289702	-0.346673	-0.521757	-0.632858	-0.571175	-0.144164	0.118802	0.357867	0.557836	0.725354	0.83547	0.499239	0.542114	0.829579	1.34803	1.92492	2.17759	2.46305	2.77355	3.10366	3.36265	3.691	4.08268	4.25216	4.44487	4.69068	4.81945	5.22991	5.64778	6.07136	6.56089	7.28452	8.05451	8.70048	9.36706	9.99583	10.6579	11.3218	12.0512	12.7796	13.3575	14.0475	14.7185	15.3649	16.1492	17	17.9047	18.8113	19.761	20.8471	21.8953	23.0539	24.3542	25.6036	26.7948	28.1439	29.5184	30.7743	32.2088	33.6665	35.6199	37.282	38.8265	40.5019	42.2143	43.9259	45.5447	47.2534	48.859	50.3574	51.7054	52.8599	54.1168	55.3331	56.5445	57.8483	59.1602	60.3297	61.548	62.7676	63.9693	65.0704	66.1858	67.2442	68.1437	68.8505	69.4302	69.8256	70.0056	69.9298	69.582	69.1531	68.683	68.0703	67.5429	66.922	66.2857	65.7001	65.1812	64.7564	64.2309	63.5728	62.7051	61.6523	60.7183	59.7083	58.576	57.1966	55.8159	54.3785	52.9958	51.571	50.1186	48.6566	47.3127	46.1107	45.0412	44.1039	43.1958	42.8189	43.5043	41.642	40.3464	38.3058	37.3293	36.5977	35.788	34.7058	33.7332	32.8224	31.9152	31.009	30.0809	29.0593	28.0502	27.0502	26.0378	25.0052	23.917	22.8748	21.814	21.016	20.4147	19.8471	19.4264	19.1966	18.8245	18.5441	18.4405	18.3178	18.2808	18.4888	18.6932	19.0999	19.6176	20.047	20.4769	21.0482	21.8109	22.3018	22.8371	23.5978	24.3654	24.8219	25.1262	25.9997	26.0395	26.2228	26.2815	26.2873	26.7971	27.8905	29.3781	31.6804	34.9773	38.4673	43.3412	50.4878	60.1572	69.4682	83.9857	101.64	122.701	150.479	185.997	208.049	220.982	205.11	184.788	150.986	128.112	105.326	84.5761	62.5706	53.6514	45.0579	38.5476	33.482	29.7146	26.05	23.5726	20.5363	19.6924	17.1145	15.6063	14.1276	12.863	11.8536	10.9567	10.1659	9.49418	8.98377	8.45161	8.03805	7.58637	7.12172	6.72678	6.062	5.64859	5.29003	5.10546	4.94621	4.86917	4.80565	4.78468	4.75926	4.78824	4.84539	4.73784	4.60857	4.511	4.30849	3.95809	3.68499	3.40216	3.01231	2.67295	2.31285	2.22849	2.15471	2.06163	1.89095	1.78476	1.71672	1.73178	1.75975	1.84971	1.96593	2.00974	2.07127	2.16172	2.17639	2.28963	2.37981	2.35422	2.19333	1.99278	1.75152	1.37171	0.917681	0.4305	0.0547719	-0.277473	-0.546147	-0.813638	-1.13289	-1.28174	-1.07273	-1.00272	-0.892823	-0.701605	-0.448223	-0.12567	0.134997	0.39551	0.600407	0.809844	0.902088	0.952952	0.96719	0.995217	0.975209	0.883068	0.857576	0.787858	0.620407	0.415562	0.23711	0.0931282	0.14517	0.260686	0.382211	0.506336	0.574346	0.656012	0.582987	0.537549	0.550651	0.61757	0.667189	0.729606	0.786609	0.881409	1.15482	1.26919	1.35311	1.36787	1.31135	1.30447	1.25974	1.13585	0.98528	0.797394	0.480134	0.15391	-0.21506	-0.550159	-0.897261	-1.07624	-1.09271	-0.990278	-0.834223	-0.505599	-0.0641539	0.522924	0.763608	0.869624	0.93903	0.90413	0.740564	0.185172	-0.24216	-0.53135	-0.669793	-0.670414	-0.65973	-0.675385	-0.575217	-0.251808	-0.134801	-0.0331095	0.105409	0.244299	0.323041	0.42604	0.491033	0.41974	0.315133	0.259975	0.216853	0.155987	0.125661	0.0810855	0.0152387	-0.00186488	0.0300683	-0.109993	-0.208409	-0.341591	-0.407074	-0.44927	-0.432655	-0.404746	-0.344665	-0.25074	-0.0587334	0.196177	0.509959	0.788139	1.07863	1.24772	1.41803	1.54491	1.68922	1.61316	1.44304	1.28831	1.29837	1.27994	1.28487	1.28466	1.34385	1.32833	1.43092	1.56237	1.72542	1.72614	1.64118	1.53666	1.33436	0.984476	0.588121	0.241008	0.0299768	-0.17966	-0.227456	-0.15168	-0.0297252	-0.0142412	-0.00383689	0.0462844	0.0475344	0.0285841	0.0509636	0.0824324	0.0744837	-0.0455463	-0.247387	-0.388	-0.488762	-0.567853	-0.612419	-0.477302	-0.375644	-0.312528	-0.244318	-0.136315	-0.0394484	0.0849758	0.24408	0.328223	0.585151	0.882733	1.09682	1.24025	1.41338	1.60736	1.91201	2.29798	2.59237	2.83206	2.97006	2.81787	2.71163	2.53284	2.52644	2.60969	2.80835	3.03767	3.28818	3.55144	3.78141	4.00787	4.25834	4.56856	4.72956	5.13082	5.14322	5.00265	4.74236	4.48349	4.19935	3.87199	3.70615	3.5982	3.59984	3.74123	4.05488	4.32096	4.65654	4.92506	5.09477	5.34047	5.65678	5.85313	5.9265	6.02359	6.08404	6.096	5.96491	5.90539	5.72621	5.53592	5.33608	5.2914	5.20899	5.19612	5.29747	5.60054	5.18962	5.29301	5.47609	5.75024	6.10185	6.489	6.94845	7.33625	7.72422	8.02417	8.37497	8.51167	8.61306	8.61023	8.69449	8.7038	8.65336	8.50111	8.39266	8.27384	8.22768	8.25515	8.45122	8.79246	9.21378	9.81319	10.4256	11.1109	11.9272	12.6718	13.3818	14.0503	14.6077	15.1055	15.6477	16.0769	16.4227	16.7336	17.1004	17.2224	17.6443	18.2442	18.8671	19.5219	20.2524	21.0186	21.8076	22.6001	23.3375	23.9182	24.4285	24.984	25.5878	26.3364	27.075	27.6764	28.3857	29.1654	29.6669	30.151	30.519	30.7747	30.7017	30.4395	29.4917	29.0103	29.1224	29.094	29.9509	30.4756	31.0744	31.4831	31.8729	32.1331	32.1409	31.8577	31.7174	32.0159	32.9791	31.9295	30.5298	28.6896	26.2695	24.3798	22.3838	20.744	19.217	17.8536	18.1368	17.4823	17.7174	17.4215	17.5329	17.4507	17.6154	17.6566	17.9144	18.1092	18.5006	19.4986	19.8854	20.3279	20.4572	20.3662	20.0135	18.3989	17.3535	16.1141	14.7157	13.1906	11.6355	10.1848	9.32757	8.1356	7.00026	5.97349	5.0784	4.46486	3.65388	2.93843	2.33214	1.83097	1.45784	1.07836	0.777152	0.427293	0.14006	-0.247175	-0.487884	-0.599473	-0.639506	-0.572415	-0.428413	-0.21807	0.216061	0.232921	-0.192112	-1.00907	-1.18484	-1.16232	-0.934604	-0.560494	0.527252	0.759396	0.480732	0.451185	0.34904	0.237347	0.266483	0.208857	0.551708	0.563288	0.621393	0.665433	0.642634	0.519776	0.376517	0.45065	0.457393	0.38347	0.291295	0.131479	-0.0840354	-0.195972	-0.20312	-0.169355	-0.0867751	-0.0383168	0.0108099	0.0842391	0.075283	0.081082	0.0131874	-0.180073	-0.248514	-0.316549	-0.33008	-0.240749	-0.251562	-0.354675	-0.455523	-0.494317	-0.391847	-0.177177	0.038948	0.255782	0.45082	0.589561	0.659042	0.589433	0.519047	0.50887	0.424839	0.358401	0.310442	0.235549	0.0358057	-0.0892957	-0.29699	-0.472679	-0.628746	-0.685513	-0.6691	-0.606152	-0.467222	-0.392615	-0.252378	-0.13144	-0.0369427	0.0996959	0.424531	0.738517	1.0887	1.43794	1.78273	2.10811	2.42571	2.82793	3.23582	3.58017	3.95706	4.20376	4.71631	5.62995	6.13989
-20	-0.0366178	49.183	48.0584	46.9469	45.4623	43.7462	42.2118	40.9494	39.626	38.4157	37.175	35.9919	34.8009	33.6513	32.4519	31.3185	30.039	28.6436	27.4823	26.3407	25.2378	24.1978	23.0825	21.9668	20.9708	19.9819	19.1195	18.3048	17.4465	16.7433	16.085	15.4765	14.8367	14.2292	13.581	12.9457	12.2373	11.6646	11.1365	10.4855	9.87994	9.18833	8.45889	7.77714	7.1032	6.47886	5.92436	5.53562	5.19746	4.80452	4.39224	4.05686	3.76371	3.58878	3.40921	3.28971	3.14586	3.02226	2.78265	2.47339	2.20463	1.85807	1.52211	1.1804	0.731952	0.293543	-0.0711753	-0.278079	-0.402529	-0.541383	-0.587464	-0.504326	-0.44514	-0.3552	-0.273834	-0.191859	-0.180395	-0.20958	-0.221071	-0.143208	-0.0136291	0.054241	0.0518181	0.0530665	0.0254341	0.119446	0.234441	0.2527	0.271058	0.270347	0.327553	0.347422	0.268706	0.290496	0.437844	0.609628	0.713875	0.82121	0.974414	1.0627	1.13125	1.20522	1.26375	1.34061	1.34572	1.31492	1.29478	1.14064	1.06061	1.17524	1.40186	1.77002	1.90496	1.97743	2.0978	2.21214	2.4145	2.60459	2.6939	2.71779	2.74329	2.81374	2.72761	2.61488	2.71204	2.80169	2.82068	2.74232	2.68867	2.64284	2.62353	2.62474	2.60777	2.62152	2.74952	2.93172	3.16369	3.35181	3.55705	3.77815	3.97479	4.16759	4.36177	4.47197	4.73274	4.92658	5.03547	5.17521	5.4179	5.64382	5.83337	6.03693	6.29784	6.50228	6.73395	7.02448	7.36035	7.57836	7.76445	8.00772	8.21123	8.53524	8.75735	9.04093	9.44219	9.8329	10.2548	10.8245	11.3788	11.9048	12.3628	12.7611	13.2227	13.6312	14.0138	14.2611	14.428	14.477	14.4514	14.3765	14.2323	13.9624	13.6656	13.3294	13.0951	12.812	12.5054	12.2833	12.1929	12.042	11.8848	11.7411	11.8201	12.0693	12.239	12.3883	12.5178	12.5953	12.6674	12.7574	12.7562	12.7278	12.6493	12.5427	12.2598	11.9275	11.7056	11.5497	11.3827	11.3201	11.2574	11.1294	11.5025	12.2675	13.7304	13.2138	10.7391	10.5715	10.0769	9.9391	9.6661	9.996	10.133	10.0431	9.64817	9.28125	8.73432	9.12317	8.8976	8.6733	8.43556	8.24084	7.98688	7.77373	7.52364	7.4186	7.28788	7.13496	6.82798	6.83226	6.7922	6.72529	6.629	6.48244	6.34781	6.2016	6.10933	6.11977	6.13884	6.10633	6.06438	5.99537	5.8999	5.85364	5.79781	5.73655	5.59553	5.44458	5.31861	5.28757	5.11443	4.8298	4.42439	3.98175	3.55649	3.28091	3.08612	2.86616	2.69646	2.62601	2.53809	2.48818	2.47224	2.53324	2.56592	2.67501	2.76694	2.93747	3.1023	3.10775	2.97565	2.80883	2.6422	2.51306	2.46638	2.67113	2.73214	2.67058	2.57518	2.34624	2.09676	1.79297	1.51141	1.18505	0.860132	0.559019	0.311465	0.212478	0.168566	0.152318	0.134692	0.0962027	-0.016497	-0.179882	-0.319504	-0.396263	-0.389867	-0.427845	-0.445627	-0.541056	-0.603002	-0.67832	-0.713885	-0.699517	-0.665447	-0.567849	-0.335238	0.0269978	0.494679	0.710477	0.788702	0.740142	0.56615	0.415121	0.339288	0.189489	0.0944446	-0.00343163	-0.0534258	-0.121064	-0.0921991	-0.017428	0.215068	0.555167	0.9562	1.36002	1.73151	2.07161	2.40853	2.59923	2.70761	2.91455	3.13243	3.35583	3.53892	3.71152	3.95583	4.31149	4.80254	5.28031	5.84455	6.36721	6.92493	7.43858	7.90623	8.35864	8.85536	9.34412	9.84668	10.2537	10.6781	11.2315	11.7453	12.3964	13.2091	14.1314	15.0974	16.1214	17.162	18.1496	19.1994	20.3324	21.6394	22.9294	24.2559	25.4751	26.8976	28.3968	29.6807	31.0034	32.3612	33.8416	35.3638	36.9658	38.5591	40.2008	41.6952	42.9335	44.2569	44.8982	46.2221	47.5433	49.0426	50.4383	52.0438	53.7186	55.507	57.26	58.7999	60.093	61.276	62.5766	63.8975	65.0333	66.0317	66.7962	67.4916	67.8046	67.9134	67.9103	67.741	67.2627	66.7749	66.1205	65.2228	64.2253	63.3082	62.3773	61.3173	60.4692	59.7368	58.998	58.3513	57.7453	56.9274	56.2273	55.4727	54.6793	53.9326	53.0754	52.0688	50.87	49.5061	48.0589	46.6511	45.1354	43.5378	42.1545	40.9087	39.7334	38.6841	37.8065	37.0094	36.2702	35.2272	34.1858	33.2722	32.3533	31.347	30.2647	29.066	27.9679	26.8492	25.7638	24.7876	23.8746	22.9604	22.2312	21.5674	21.0642	20.4772	20.0361	19.5915	19.0662	18.8265	18.65	18.5227	18.2723	18.0147	17.6584	17.3838	17.3874	17.4277	17.5966	18.0074	18.4174	18.735	19.1011	19.5921	20.0891	20.809	21.1281	21.6713	22.1247	22.507	23.0089	23.2428	23.5127	23.6045	23.697	24.0064	24.7298	25.8208	27.5565	30.6736	33.1693	37.1787	41.9198	48.0366	56.3724	66.2273	79.9976	97.1587	116.536	142.055	169.601	193.997	212.152	200.592	176.956	146.54	118.957	93.9214	74.0158	60.5583	50.7971	42.5068	36.4853	30.1291	25.4597	22.4228	20.1217	17.7231	15.8161	14.1713	12.8805	11.553	10.4907	9.55688	8.7918	8.09578	7.5267	6.99674	6.55536	6.07176	5.57616	5.07169	4.43207	3.97938	3.68853	3.45813	3.35337	3.20843	3.27461	3.25439	3.24275	3.20842	3.21415	3.2711	3.3231	3.24623	3.14148	3.03808	2.899	2.74058	2.61339	2.41737	2.30802	2.2708	2.28459	2.41329	2.46253	2.42535	2.43883	2.29169	2.20388	2.06197	1.96091	1.80768	1.44236	1.26621	1.15191	1.04685	1.05599	1.10498	1.04865	1.14953	1.50795	1.65248	1.70766	1.81547	1.9813	2.01665	1.87484	1.64005	1.42763	1.23835	1.05097	0.708449	0.258649	-0.389196	-0.839157	-1.16475	-1.35845	-1.31449	-1.29804	-1.07922	-0.953791	-0.705808	-0.311161	-0.0179548	0.217354	0.537739	0.687214	0.833022	0.960832	1.06576	1.07313	1.15786	1.14783	0.947491	0.805219	0.699591	0.726778	0.660513	0.434261	0.320934	0.433423	0.335745	0.227896	0.01049	-0.208763	-0.50513	-0.640221	-0.640817	-0.617161	-0.407956	-0.323103	-0.0706856	-0.154502	0.26037	0.905201	1.78908	1.35236	1.20698	1.16749	1.11352	0.982075	0.765874	0.521271	0.266373	-0.165683	-0.444116	-0.577689	-0.63577	-0.704651	-0.697312	-0.655435	-0.447902	-0.211491	0.195206	0.440018	0.639049	0.783156	0.91899	1.07871	1.23763	1.31281	1.35649	1.41893	1.45959	1.54602	1.56087	1.57276	1.51386	1.43231	1.38804	1.36747	1.26262	1.06421	0.825832	0.609877	0.482464	0.360731	0.327777	0.279851	0.193457	0.184964	0.213543	0.261913	0.342675	0.451322	0.416122	0.304218	0.199766	0.0894453	0.0230929	-0.133676	-0.277078	-0.471161	-0.569916	-0.571063	-0.728944	-0.627577	-0.382403	0.314186	0.636014	0.91277	1.11163	1.29835	1.32142	1.33689	1.2233	1.06026	0.918426	0.732508	0.491816	0.260691	0.079031	-0.0401062	-0.0773259	0.000937265	0.0721504	0.185199	0.290457	0.345684	0.357722	0.242337	0.185195	0.123781	0.021581	-0.0813531	-0.304066	-0.495167	-0.672866	-0.734347	-0.767234	-0.753945	-0.794288	-0.8343	-0.775312	-0.612492	-0.477017	-0.312839	-0.258944	-0.238085	-0.129262	-0.0403068	0.145853	0.612371	1.04298	1.38486	1.61762	1.71988	1.73894	1.70394	1.56862	1.42244	1.23861	1.08191	1.02042	0.973807	0.923798	1.05166	1.32032	1.47574	1.81526	2.0381	2.24303	2.47019	2.65325	2.70855	2.70674	2.70362	2.65733	2.61053	2.59782	2.55702	2.57795	2.60863	2.57472	2.62583	2.67343	2.98562	3.28988	3.4422	3.59502	3.64564	3.58822	3.44603	3.2468	3.57978	3.55582	3.51177	3.38976	3.34277	3.29623	3.28139	3.25859	3.29575	3.29732	3.40507	3.55539	3.78835	4.0446	4.2342	4.33111	4.39552	4.41805	4.49093	4.56163	4.61333	4.52607	4.43781	4.52502	4.64069	4.67066	4.68176	4.70747	4.91113	5.10177	5.32189	5.56492	5.78691	5.95595	6.18444	6.41036	6.75957	7.10541	7.31875	7.62573	7.98372	8.40016	8.81784	9.21043	9.4863	9.792	10.0795	10.4054	10.6949	11.0027	11.3894	11.6894	11.9177	12.0994	12.3665	12.7614	13.193	13.6604	14.1987	14.9041	15.4771	16.0498	16.6603	17.2394	17.8667	18.5387	19.2741	20.0335	20.8295	21.527	22.1817	22.7231	23.1438	23.603	24.0725	24.5145	24.9305	25.1891	25.2957	25.6159	26.0469	26.3896	26.5996	26.9191	27.2206	27.513	27.7747	27.8437	26.9795	26.8915	27.2185	27.3486	27.8387	27.9173	29.177	30.239	31.0036	31.5028	31.5232	30.692	28.2355	26.1667	24.0744	22.1974	20.5044	19.1371	17.9364	16.7097	15.7514	15.1472	14.8119	14.5995	14.613	14.697	14.7824	15.0093	15.3142	15.6228	15.9755	16.3273	16.6628	16.8465	16.9983	16.7505	16.5306	15.8042	14.839	13.8248	12.5728	11.2722	9.85078	8.39281	7.06458	5.74813	4.45497	3.30269	2.22155	1.38604	0.84851	0.470745	0.210919	0.149972	0.19448	0.0428052	-0.0459475	-0.0107796	0.0632814	0.259202	0.30888	0.303833	0.231635	0.0630605	-0.0839547	-0.444959	-0.741188	-0.908532	-1.07184	-1.15863	-1.22151	-1.2491	-1.15059	-0.968029	-0.682529	-0.525694	-0.223223	0.144914	0.480894	0.620954	0.636409	0.56227	0.534155	0.44144	0.398162	0.373065	0.293568	0.229944	0.13198	0.0963293	0.0380785	-0.00387812	0.0181112	0.0406344	-0.0141746	0.0196323	0.0979488	0.162239	0.210906	0.218458	0.253444	0.371875	0.348955	0.260353	0.233556	0.200811	0.030674	-0.0604618	-0.120341	-0.127526	-0.0489841	-0.005333	0.040887	0.090749	0.067975	0.102819	0.0866533	0.0733922	0.0930491	0.109029	0.175268	0.319762	0.372374	0.338351	0.332587	0.259725	0.200888	0.166781	0.113893	0.128689	0.111991	0.0863196	0.0148735	-0.0916937	-0.188771	-0.320133	-0.464125	-0.539723	-0.58837	-0.627762	-0.642122	-0.605505	-0.526862	-0.32595	-0.0501042	0.343731	0.760527	1.27932	1.80545	2.3668	2.99122	3.67966	4.64705	5.67059	6.78699	7.87043
-20	20	48.0841	46.3611	44.3104	42.2991	40.4375	39.3434	37.3008	35.7258	35.3088	36.5696	32.5744	30.9976	30.0104	29.2273	28.4688	27.7194	26.9321	26.1202	25.268	24.3782	23.4843	22.5912	21.5371	20.4754	19.44	18.4254	17.4802	16.5845	15.7288	14.8846	14.0503	13.223	12.4066	11.6163	10.9643	10.3666	9.80048	9.24868	8.68374	8.08957	7.49191	6.95172	6.46275	6.0121	5.60285	5.23458	4.926	4.64056	4.33655	3.92929	3.57146	3.13597	2.86893	2.66887	2.4836	2.37474	2.10076	1.67718	1.28973	0.909704	0.558765	0.274616	0.0412107	-0.141164	-0.279009	-0.369867	-0.418082	-0.430667	-0.412574	-0.325813	-0.206534	-0.0713468	0.0752325	0.182339	0.300219	0.254661	0.197934	0.117538	0.0407549	-0.0535733	-0.113213	-0.104911	-0.0876097	0.0922415	0.278924	0.372686	0.421911	0.454873	0.440798	0.440856	0.417156	0.312649	0.194171	0.00649385	-0.254884	-0.505997	-0.613152	-0.647488	-0.582459	-0.355166	-0.0228126	0.373285	0.727172	1.08129	1.31198	1.50134	1.67766	1.85988	1.99554	2.14262	2.24897	2.26781	2.33637	2.47678	2.52825	2.58493	2.8757	2.98791	3.05314	3.07788	2.98175	2.88511	2.80693	2.75475	2.85005	3.00973	3.18341	3.35587	3.50182	3.59389	3.66342	3.71016	3.74679	3.77681	3.79246	3.80966	3.84735	3.91755	4.02414	4.14015	4.24389	4.36811	4.62584	4.97896	5.27799	5.55692	5.77629	5.97864	6.16266	6.28959	6.3698	6.43831	6.53088	6.59194	6.6976	6.83224	7.03767	7.41409	7.82886	8.36583	8.93443	9.51015	10.0465	10.5796	11.0712	11.5492	11.9887	12.4112	12.8141	13.1659	13.5049	13.7883	14.0195	14.1247	14.2435	14.3264	14.4279	14.4966	14.5488	14.5106	14.4871	14.4889	14.3842	14.1676	13.9414	13.7958	13.6515	13.5322	13.4106	13.2873	13.1373	12.9898	12.8456	12.702	12.5688	12.4237	12.2723	12.1711	12.0731	12.0094	11.9739	11.9086	11.784	11.7006	11.6517	11.6897	11.7397	11.8434	11.8293	11.7486	11.6526	11.5293	11.4367	11.3484	11.2307	11.0779	10.9197	10.7466	10.5699	10.4531	10.318	10.1737	10.0023	9.85858	9.71175	9.59468	9.50154	9.33031	9.14134	8.85226	8.551	8.30237	8.15274	7.98991	7.80663	7.63349	7.46649	7.31653	7.17363	7.02492	6.82025	6.64043	6.52249	6.43148	6.33908	6.21468	6.07231	5.90192	5.71363	5.52039	5.32803	5.13617	4.9782	4.88174	4.77587	4.7584	4.7285	4.68121	4.63268	4.59555	4.51986	4.49473	4.44653	4.37615	4.28075	4.09756	3.88931	3.60047	3.21909	2.8387	2.50358	2.20049	2.04453	1.87075	1.79365	1.76678	1.78917	1.83811	1.91907	1.99436	2.10543	2.24718	2.47655	2.51682	2.41097	2.2897	2.13032	1.94289	1.74632	1.51488	1.3183	1.12218	0.942574	0.782049	0.643997	0.496828	0.377945	0.288669	0.285889	0.337284	0.338807	0.347769	0.353538	0.317466	0.271471	0.23719	0.192636	0.143155	0.105991	0.0606854	0.0353765	-0.018681	-0.0691079	-0.14424	-0.25241	-0.392311	-0.539389	-0.679098	-0.773141	-0.725559	-0.618029	-0.516556	-0.413383	-0.351468	-0.287496	-0.160206	0.0296623	0.312764	0.543183	0.768813	1.00431	1.27409	1.54164	1.68703	1.92817	2.21167	2.51081	2.79626	3.07392	3.33271	3.56018	3.69396	3.81401	3.93668	4.06755	4.27689	4.54885	4.85265	5.2017	5.64206	6.12257	6.61056	7.10112	7.67264	8.31691	8.83459	9.35659	9.88606	10.4502	11.0162	11.5897	12.2023	12.8039	13.3795	13.7989	14.1664	14.8691	15.7173	16.6079	17.8352	18.8986	19.997	21.0612	22.1075	23.2268	24.6109	25.8372	27.1891	28.5262	29.6948	30.811	32.3335	34.0288	35.847	37.5478	39.2524	41.0325	42.8495	44.6683	46.5475	48.3077	49.8524	51.2712	52.5858	53.3414	54.4435	55.5239	56.5675	57.5219	58.5038	59.3641	60.1131	60.7432	61.2734	61.6211	61.9136	62.1867	62.4132	62.5842	62.6918	62.7258	62.6948	62.5902	62.4056	62.1365	61.8168	61.7853	61.0078	60.1263	59.2056	58.2004	57.1163	55.9864	54.0988	53.1181	52.3802	51.5953	50.8333	50.0057	49.0516	48.1899	47.5185	46.5	45.1772	43.9237	42.5797	41.2287	39.8923	38.6678	37.5221	36.6614	36.3041	35.677	34.9137	33.1453	32.0344	31.0843	30.1502	29.3819	28.6679	27.9375	27.1379	26.163	25.1641	24.2059	23.2938	22.4508	21.653	20.9735	20.3634	19.8455	19.2857	19.0515	18.5959	18.1589	17.7612	17.0383	16.7837	16.5301	16.1612	15.9232	15.7934	15.7286	15.672	16.1766	16.7635	17.4354	18.0529	18.7054	19.5144	20.3892	21.104	21.7593	22.0887	22.0996	21.8217	21.8816	21.9898	22.0087	21.896	22.3992	23.175	24.8577	27.0972	29.9643	33.9524	38.5069	45.181	52.8252	62.1878	74.898	90.9086	113.968	140.495	163.839	189.836	194.131	182.653	158.946	136.655	113.651	92.4902	73.175	59.4089	47.6141	36.6393	32.7913	29.5162	25.8463	22.8402	19.9875	17.5327	15.4295	13.6876	12.2709	10.9911	9.94355	9.03159	8.26023	7.6186	7.11022	6.69588	6.3707	5.99709	5.62958	5.23374	4.82195	4.45636	4.10898	3.79383	3.46656	3.18105	2.95527	2.78121	2.60386	2.37524	2.1839	2.04047	2.0254	2.02208	2.0427	2.04456	2.01798	2.01044	2.20597	2.20135	2.09445	1.92675	1.72414	1.4864	1.2519	1.0487	0.881264	0.762529	0.703083	0.718947	0.750818	0.805489	0.895556	1.01678	1.20785	1.40079	1.4757	1.49895	1.49356	1.27198	1.01865	0.755392	0.485611	0.268015	0.132474	0.0545633	-0.00193433	-0.0378016	-0.0593753	-0.0712942	-0.0922532	-0.11512	-0.145964	-0.154495	-0.188986	-0.290101	-0.427279	-0.507306	-0.517252	-0.449142	-0.278521	-0.161105	-0.0977895	0.0309666	0.170659	0.361393	0.541805	0.658889	0.676592	0.704418	0.655571	0.546309	0.352449	0.123114	-0.115494	-0.430594	-0.616745	-0.606836	-0.593065	-0.528427	-0.443471	-0.374299	-0.450681	-0.446334	-0.443223	-0.416487	-0.379181	-0.346272	-0.303712	-0.282851	-0.297632	-0.352483	-0.451111	-0.499204	-0.393158	-0.267294	-0.0666398	0.0268998	0.0505599	0.0282964	-0.0172638	-0.0764815	-0.132663	-0.163403	-0.167629	-0.126985	-0.0653276	0.0499636	0.181888	0.236132	0.257815	0.295112	0.386602	0.541259	0.681376	0.615898	0.461457	0.333737	0.244456	0.251556	0.25922	0.532167	0.649873	0.690906	0.619163	0.56746	0.562961	0.576501	0.633558	0.752452	0.839403	0.810137	0.706232	0.512736	0.324778	0.171641	0.0716151	-0.0417529	-0.131038	-0.232007	-0.3443	-0.443946	-0.550346	-0.646517	-0.727518	-0.739386	-0.678805	-0.546965	-0.362547	-0.226055	-0.0154418	0.186541	0.394975	0.569749	0.759578	0.944194	1.04949	1.08376	1.06176	1.05849	0.990229	0.90926	0.821953	0.716554	0.624488	0.549813	0.516695	0.493705	0.4721	0.420733	0.362652	0.265321	0.143698	0.0102883	-0.133385	-0.267275	-0.42837	-0.552123	-0.635366	-0.648349	-0.679726	-0.748388	-0.637284	-0.469497	-0.271086	-0.0421916	0.142531	0.293762	0.313918	0.258086	0.229645	0.26294	0.177428	0.108519	0.0239946	-0.137942	-0.292967	-0.399981	-0.407424	-0.348006	-0.29659	-0.130904	0.180966	0.532487	0.78443	0.925545	0.97602	1.1348	1.17866	1.32139	1.52913	1.70597	1.77664	1.88073	2.04489	2.2734	2.49958	2.69213	2.78126	2.81835	2.81742	2.78053	2.73482	2.67297	2.64861	2.62643	2.67067	2.8262	2.91647	2.98477	3.0366	3.07321	3.04093	2.96792	2.98329	3.02355	3.07334	3.04525	3.01015	2.99467	2.98907	2.98281	2.97045	2.98293	3.01021	3.05887	3.31915	3.58816	3.77051	3.88282	3.97237	4.00083	4.086	4.27184	4.40534	4.46162	4.4862	4.30991	4.1029	3.9238	3.68272	3.53813	3.48022	3.51622	3.63449	3.78961	3.9532	4.12194	4.2973	4.49527	4.69131	4.94111	5.21293	5.50378	5.7803	6.08476	6.40564	6.72378	7.05288	7.41544	7.81733	8.31183	8.80889	9.2626	9.68657	10.0864	10.4725	10.6693	10.8339	11.0904	11.3616	11.5753	11.7642	11.9861	12.2287	12.549	12.8869	13.2609	13.6679	14.1008	14.5598	15.017	15.4043	15.859	16.3123	16.8402	17.5012	18.043	18.6138	19.2985	19.9891	20.6241	21.246	21.9276	22.5535	23.1142	23.5755	23.9841	24.3542	24.7439	25.1892	25.6143	25.9224	26.1811	26.3461	26.2872	26.2949	26.1109	25.8811	25.8386	25.5844	25.6474	25.9582	26.5283	27.2067	27.8703	28.5994	29.3162	30.1034	30.668	31.4953	31.3205	30.6992	29.6768	28.2901	26.5575	24.7796	22.8574	21.0928	19.4086	17.873	16.5428	15.4646	14.6311	14.0753	13.9545	13.9915	14.6095	14.979	15.3688	15.749	16.1421	16.5346	16.885	17.0912	17.1602	17.3452	17.2244	16.8754	16.1544	14.9906	13.6139	12.1324	10.5625	9.05526	7.61875	6.27251	5.07699	4.0763	3.63886	2.99248	2.44331	1.95199	1.52984	1.1487	0.862157	0.634	0.425657	0.253608	0.0578458	-0.133572	-0.31038	-0.458437	-0.579468	-0.678439	-0.735051	-0.787111	-0.864179	-0.779496	-0.635237	-0.512739	-0.370209	-0.226492	-0.0689638	0.143154	0.371356	0.511829	0.641008	0.533736	0.642284	0.759374	0.86682	0.863653	0.853975	0.831345	0.777902	0.709444	0.580754	0.42955	0.308896	-0.0516094	-0.183445	-0.274704	-0.31487	-0.312175	-0.250215	-0.149553	-0.0392833	0.138896	0.255797	0.391867	0.450867	0.450148	0.463976	0.533799	0.643099	0.726059	0.765312	0.783705	0.796905	0.817971	0.845143	0.92551	0.996572	1.06493	1.00311	0.870638	0.679511	0.475267	0.304603	0.111348	-0.0295212	-0.0844113	0.197008	0.39346	0.438279	0.42149	0.405524	0.393289	0.213783	0.139843	0.0925922	0.076795	0.041065	0.0215518	-0.0534232	-0.134647	-0.138391	-0.263982	-0.336444	-0.393592	-0.443347	-0.468656	-0.478384	-0.486738	-0.478764	-0.443519	-0.368241	-0.223113	-0.00213752	0.253318	0.486243	0.782973	1.18658	1.52554	1.74108	1.93091	2.31339
0	-20.0732	37.6109	39.4768	38.6894	37.8006	36.7508	35.4923	34.2198	32.8438	31.4382	30.1519	28.9757	27.8617	26.8002	25.773	24.8937	24.0328	23.1844	22.3439	21.5399	20.6587	19.7954	18.9411	18.1363	17.2322	16.3209	15.4032	14.4728	13.4883	12.6225	11.8614	11.1871	10.5254	9.97181	9.49393	9.06464	8.60526	8.12815	7.57117	7.10504	6.60105	6.20289	5.81491	5.48992	5.13068	4.85894	4.57666	4.25282	3.95083	3.86389	3.69752	3.55728	3.18505	2.75756	2.38962	1.9523	1.64467	1.0588	0.739665	0.657462	0.520333	0.500412	0.465249	0.41483	0.372397	0.264389	0.167677	-0.00090689	-0.0953011	-0.222576	-0.428289	-0.602835	-0.676407	-0.743051	-0.812611	-0.785196	-0.648621	-0.461159	-0.291589	-0.106902	0.0785744	0.298074	0.350115	0.405424	0.386224	0.338691	0.321495	0.252616	0.249724	0.163592	0.191481	0.265341	0.353961	0.40041	0.535398	0.854431	1.38358	1.59893	1.75541	1.79779	1.84437	1.81916	1.60761	1.4864	1.37228	1.32714	1.30535	1.35456	1.80499	1.95696	2.14837	2.29063	2.53135	2.99509	3.4404	3.79213	4.14332	4.3141	4.37668	4.40021	4.34492	4.23313	4.1319	4.01223	3.85071	3.80777	3.75903	3.73669	3.70566	3.52524	3.35944	3.49072	3.64767	3.85055	4.02964	4.18627	4.39343	4.5213	4.68652	4.80682	4.97865	5.23244	5.51026	5.75931	5.94006	6.1396	6.34837	6.61382	6.80914	6.99501	7.13764	7.43287	7.75117	8.05225	8.31818	8.41048	8.45468	8.42618	8.41426	8.36092	8.38844	8.64974	8.98089	9.34365	9.82814	10.4449	11.1564	11.9123	12.6413	13.2825	13.9557	14.5835	15.0386	15.1771	15.2048	15.1754	15.2703	15.2851	15.292	15.1494	14.9553	14.7402	14.4916	14.3622	14.1963	13.9886	13.8393	13.7668	13.7866	13.8518	13.8857	14.0236	14.1181	14.1739	14.2135	14.3567	14.4436	14.4827	14.3204	14.1105	13.8346	13.5039	13.1332	12.7678	12.328	11.909	11.519	11.2073	11.02	10.996	10.8702	10.777	10.619	10.7225	10.8251	11.037	11.2544	11.4612	11.6846	12.0433	12.1655	12.2297	12.1835	11.9698	11.7104	11.2633	10.8775	10.6052	10.4424	10.5052	10.2495	10.0244	9.19836	8.88232	8.64509	8.58503	8.6162	8.66589	8.71626	8.75368	8.66298	8.53024	8.26285	7.98114	7.69476	7.45733	7.1693	6.85968	6.59211	6.32551	5.96953	5.61728	5.36052	5.15614	4.99429	4.92371	4.76286	4.62306	4.27944	4.16367	4.16884	4.11712	4.14662	4.10644	4.00379	3.69397	3.53609	3.48433	3.45096	3.58086	3.72563	3.81514	3.86178	3.72578	3.60721	3.50996	3.40953	3.36803	3.23627	3.13143	3.08725	3.06523	3.02254	2.89451	2.66408	2.43399	2.2765	2.16418	2.15787	1.99244	1.95996	1.81892	1.60578	1.32346	1.17654	1.0145	0.947411	0.846406	1.13815	1.73874	2.44664	3.60648	4.2434	2.07961	0.65946	-0.683253	-0.196447	-0.233853	0.0451511	0.0177827	0.390807	0.0660317	0.0599991	0.0123239	-0.346496	-0.49332	-0.660106	-0.677708	-0.432623	0.134106	0.793929	1.44695	1.99419	1.21135	0.432299	-0.400815	-1.99954	0.345372	0.720904	2.00159	1.24911	1.35561	0.702399	0.934282	1.28037	1.75176	2.37349	2.66432	2.96975	3.09022	3.26097	3.4039	3.51009	3.58234	3.71838	3.95327	4.22811	4.78546	4.95764	5.13351	5.3184	5.5966	5.95576	6.3448	6.68637	7.07542	7.38709	7.7191	8.0728	8.58499	9.1829	9.74419	10.4317	11.1871	12.0209	12.9125	13.9005	14.7723	15.599	16.4804	17.4834	18.5185	19.6682	20.6612	21.5527	22.3689	23.2357	24.2647	25.3908	26.732	28.0807	29.3935	30.7566	32.4014	34.1368	35.719	37.2763	38.781	40.2069	41.6176	42.9479	43.8584	45.0545	46.272	47.4123	48.5857	49.7925	50.982	52.1029	53.2551	54.3715	55.4929	56.5975	57.6033	58.4727	59.1745	59.7306	60.2994	60.5044	60.4686	60.2376	59.8548	59.3603	58.722	57.8691	56.8909	55.7596	54.7628	53.8591	53.0943	52.4941	51.9693	51.9397	51.4838	50.9026	50.3513	49.9076	49.1804	48.5134	47.5955	46.6577	45.7524	44.842	43.8568	42.6272	41.2327	39.685	38.2452	36.7263	35.2845	33.9972	32.7464	31.6444	30.6752	29.775	28.9586	28.1246	27.2759	26.5675	25.9172	25.2924	24.5973	23.9125	23.2656	22.529	21.8916	21.1205	20.4016	19.5973	18.8253	18.0042	17.28	16.5216	15.78	15.1245	14.4858	13.8483	13.2546	13.0817	13.0058	13.2202	13.7197	14.1073	14.5018	15.0586	15.5018	15.2741	15.5071	15.8742	16.1847	16.75	17.5772	17.749	18.081	17.8714	18.2912	17.9123	17.9528	17.8185	18.1006	18.4198	19.1148	19.7984	21.0381	22.5436	24.6361	27.4746	31.7907	37.4503	44.4066	53.0465	62.7713	74.9887	90.5258	113.143	136.458	158.286	169.22	161.204	144.198	114.437	92.6835	74.6691	60.6416	49.9556	40.8225	34.442	29.3742	24.2974	20.5411	17.8904	15.6586	13.8197	12.2618	11.2047	9.97834	8.79606	7.88837	7.41075	6.89173	6.64423	6.33967	6.11786	5.75328	5.47255	5.14615	4.82575	4.47181	4.08224	3.7969	3.53768	3.18042	2.75098	2.37354	2.00158	1.69208	1.55818	1.51607	1.58743	1.70198	1.75124	1.86369	1.9871	2.06638	2.13377	2.20159	2.21659	2.16716	2.08858	2.02638	1.84816	1.62305	1.37041	1.26945	1.26186	1.21403	1.15335	1.11184	1.06189	1.02055	1.13623	1.34991	1.4249	1.42215	1.26239	1.02446	0.805402	0.647658	0.395366	-0.00911419	-0.224196	-0.446577	-0.515504	-0.598113	-0.669726	-0.687374	-0.651404	-0.553986	-0.445952	-0.271966	-0.205777	-0.074156	0.0588278	0.255086	0.453949	0.650263	0.851456	1.02831	1.19778	1.31972	1.4739	1.5054	1.38286	1.17401	0.980302	0.784586	0.577184	0.399662	0.191653	0.0339574	-0.0242886	0.00976869	0.0546341	0.138566	0.294982	0.561546	0.752936	0.966751	1.12735	1.21834	1.2198	1.14888	0.952484	0.707179	0.485552	0.280897	0.160235	0.0281904	-0.0113136	-0.0249458	-0.0394795	-0.00283445	0.0718594	0.173901	0.283819	0.378192	0.438783	0.474593	0.400497	0.392062	0.257243	0.159843	0.13516	0.0890154	0.0269024	-0.019007	-0.0289494	-0.0318563	-0.0173964	0.0200451	0.0512838	0.0217449	0.00101687	-0.0916247	-0.14882	-0.276038	-0.21886	-0.0939283	0.0827244	0.142468	0.181742	0.0957623	0.213315	0.458285	0.658352	0.836556	1.0483	1.2198	1.31227	1.27915	1.10909	0.77151	0.540979	0.254927	0.0315551	-0.0882322	-0.131182	0.107572	0.20367	0.294814	0.443335	0.580101	0.537476	0.495942	0.470576	0.336193	0.152754	-0.0791361	-0.275028	-0.392641	-0.327434	-0.225305	-0.251222	-0.307582	-0.262493	-0.183022	0.0641877	0.160626	0.297276	0.0847263	0.0923372	0.138908	0.218723	0.410303	0.471339	0.645055	0.831811	0.965612	1.07768	1.10089	1.08497	0.950258	0.751677	0.465749	0.108046	-0.155939	-0.473648	-0.628209	-0.720596	-0.853818	-0.826345	-0.77314	-0.771415	-0.769093	-0.726868	-0.701068	-0.671136	-0.61392	-0.493057	-0.398643	-0.346699	-0.292675	-0.236403	-0.19466	-0.172144	-0.0934468	-0.0384207	0.125524	0.200104	0.292272	0.335217	0.186971	0.163653	0.127232	0.0112978	-0.139987	-0.362393	-0.388561	-0.18668	0.132476	0.298301	0.45789	0.573009	0.598857	0.301939	0.176198	0.0897911	-0.13742	-0.201892	-0.202671	0.132065	0.358459	0.331958	0.173741	0.1133	0.199928	0.302431	0.413814	0.599207	0.998171	0.561464	0.644442	0.641901	0.687691	0.709219	0.723516	0.866008	0.996049	1.08575	1.15959	1.16339	1.09286	1.00727	0.928761	0.783	0.654159	0.491144	0.270879	0.179491	0.191799	0.289886	0.494656	0.61633	0.827028	0.997228	1.22675	1.48972	1.72828	1.93673	2.20965	2.46906	2.75807	3.10661	3.46187	3.7736	4.00556	4.19378	4.30411	4.30088	4.3805	4.40816	4.36781	4.27309	4.22464	4.16183	4.16379	4.28278	4.43106	4.59007	4.85945	5.15372	5.48879	5.9374	6.32275	6.73469	7.08836	7.55095	7.8497	8.05296	8.21142	8.31762	8.45192	8.63694	8.90686	9.29047	9.75295	10.4044	11.1097	11.871	12.5782	13.3194	14.1466	14.9565	15.66	16.324	16.7053	17.3177	17.9174	18.4446	18.6516	18.9494	19.1942	19.4458	19.673	19.7922	19.9774	20.4343	20.9584	21.6198	22.3143	23.0655	22.7953	22.377	21.3119	21.1266	21.4279	22.3583	22.8573	23.0435	22.8875	22.6414	22.9221	22.9131	23.5639	24.1047	24.8917	26.0816	26.8097	27.6728	27.6505	27.3095	25.8393	23.4987	20.3785	17.8593	15.6684	13.7394	12.7936	11.9389	12.2308	12.3992	12.5217	12.7424	13.014	13.2695	13.205	13.278	13.1615	13.2042	13.2199	13.4314	13.4399	13.5334	13.3272	12.9379	12.3902	11.7336	10.824	9.62393	8.45765	7.2081	6.03731	4.91904	3.82224	2.85309	2.10223	1.42649	0.835789	0.476328	0.179951	-0.082168	-0.245718	-0.363078	-0.405931	-0.364632	-0.267944	-0.226911	-0.222573	-0.269795	-0.335866	-0.269712	-0.194666	-0.195627	-0.238153	-0.222662	-0.151234	-0.0984122	-0.0870435	-0.130896	-0.144149	-0.110166	0.00453531	0.0630305	0.141913	0.229679	0.332651	0.452443	0.468384	0.436337	0.365323	0.339394	0.331786	0.249454	0.197699	0.1636	0.16637	0.134932	0.0925922	0.0409478	0.0437963	0.0344477	0.0660176	0.139693	0.271252	0.393828	0.55071	0.536171	0.645371	0.760975	0.923816	1.16894	1.31591	1.34092	1.38627	1.3304	1.26587	1.13176	0.887459	0.4319	0.143447	-0.173202	-0.318623	-0.392299	-0.448129	-0.393693	-0.231663	-0.121889	0.119488	0.279548	0.494959	0.557392	0.544111	0.530357	0.493243	0.378541	0.196025	-0.114835	-0.482133	-0.718514	-0.838507	-0.841625	-0.702426	-0.564802	-0.45789	-0.265801	-0.169447	0.0213377	0.155279	0.217614	0.282154	0.28613	0.36761	0.434638	0.413124	0.445851	0.526252	0.67321	0.798978	1.05924	1.57381	2.24098	2.85774	3.83427	5.15256	7.96583
0	-0.0366178	23.6281	23.3333	23.02	22.6889	22.2532	21.7563	21.0576	20.2325	19.4344	18.4744	17.7662	17.1638	16.6293	16.1423	15.5987	15.0678	14.4563	13.8637	13.274	12.5783	11.776	10.9023	10.2635	9.69582	9.20188	8.73263	8.08658	7.37415	6.69533	5.39533	5.0548	4.89524	4.95797	5.14005	5.22089	5.14904	4.87696	4.54275	4.23511	3.76952	3.28663	2.75737	2.35423	1.91268	1.59751	1.28462	0.949537	0.650294	0.69378	0.583868	0.473919	0.354513	0.296681	0.258156	0.248241	0.0599729	-0.299633	-0.277342	-0.214993	-0.117503	0.010448	0.105979	0.184701	0.215113	0.253569	0.232899	0.217495	0.177094	0.133149	0.0828276	0.0220215	-0.0623354	-0.153754	-0.245285	-0.326383	-0.383133	-0.415695	-0.396977	-0.273897	-0.25337	-0.0588959	0.398463	0.773778	0.99871	1.17649	1.36247	1.54311	1.73412	1.92204	2.10188	2.15994	1.94307	1.88361	1.87441	1.8867	1.9039	1.90069	1.93986	2.0258	2.18332	2.38489	2.57554	2.78638	2.99724	3.17764	3.3444	3.48886	3.60754	3.72221	3.84993	3.99441	4.11793	4.20985	4.17475	4.09812	3.99603	3.88442	3.80672	3.79661	3.84391	3.94626	4.04739	4.04207	3.93895	3.85809	3.99081	4.19208	4.43411	4.60563	4.75381	4.65303	4.52546	4.45367	4.42061	4.40852	4.50522	4.53248	4.508	4.58371	4.71307	4.87939	5.07753	5.30185	5.42611	5.54149	5.73345	5.93781	6.17933	6.30944	6.22387	6.14732	6.12398	6.13943	6.2221	6.36335	6.54768	6.83042	7.16025	7.5388	7.95324	8.40845	8.87566	9.36193	9.81142	10.1996	10.6008	10.9989	11.414	11.7875	12.1217	12.3538	12.5379	12.6922	12.8069	12.8927	13.0292	13.1575	13.2768	13.3852	13.3647	13.2944	13.1624	13.0096	12.8412	12.695	12.602	12.5042	12.3059	12.0464	11.7951	11.6416	11.4967	11.4088	11.3458	11.1151	10.8414	10.6013	10.4783	10.4614	10.4554	10.4752	10.5426	10.6153	10.6608	10.7076	10.7276	10.6813	10.5871	10.4864	10.3669	10.2325	10.0729	9.87545	9.74277	9.66118	9.70824	9.65377	9.49162	9.30444	9.07148	8.79039	8.49037	8.2262	8.03443	7.87972	7.78122	7.69808	7.55326	7.38514	7.20532	7.0598	6.9137	6.79563	6.67836	6.52699	6.367	6.21129	6.06375	5.92461	5.75598	5.64595	5.52402	5.42091	5.30045	5.12113	4.94781	4.78131	4.62738	4.46416	4.23097	4.05334	3.88208	3.76698	3.68314	3.62506	3.58237	3.48598	3.44302	3.42915	3.45398	3.43657	3.33621	3.2017	3.00769	2.87678	2.69055	2.4894	2.30136	2.11922	1.98839	1.78771	1.63711	1.48857	1.38487	1.34587	1.3901	1.50564	1.67273	1.84223	1.93412	1.87032	1.98417	2.12208	2.09605	2.05843	1.93735	1.84322	1.71153	1.58239	1.37593	1.27641	1.20212	1.16737	1.06623	0.950453	0.835662	0.641392	0.359369	0.163295	0.0185557	-0.122387	-0.20862	-0.233916	-0.163938	-0.017571	0.203208	0.437357	0.461991	0.40515	0.314403	0.252042	0.244576	0.277481	0.287691	0.20907	0.231888	0.205391	0.0945807	-0.109979	-0.263858	-0.349846	-0.392454	-0.37837	-0.328909	-0.476305	-0.685786	-0.617562	-0.378038	-0.0155885	0.505336	1.13471	1.33231	1.42783	1.57345	1.82231	2.11275	2.41656	2.72529	2.86113	2.52689	2.31206	2.50291	2.46399	2.43606	2.41267	2.52711	2.83151	3.45664	4.05879	4.69796	5.32599	5.63502	5.88205	6.26506	7.02432	7.50388	7.80896	8.0636	8.52951	8.76849	8.97279	9.48817	10.4073	11.3103	12.0242	12.79	13.5969	14.4386	15.342	16.2887	17.2831	18.3461	19.4778	20.6752	21.8601	23.0992	24.4115	25.5947	26.7571	27.921	29.1191	30.3325	31.6247	33.0368	34.4797	35.919	37.0692	38.2763	39.6544	41.1184	42.7166	44.3434	45.7703	47.2334	48.4409	49.5117	50.6651	51.8472	53.0016	54.1097	55.1536	56.1353	57.0255	57.6448	58.419	59.1302	59.7643	60.2982	60.7769	60.8689	60.6969	60.1854	59.6969	58.6979	57.5986	56.582	55.508	54.4595	53.3526	52.5654	52.0223	51.2711	50.6276	50.5517	49.6047	48.4951	47.4404	46.4493	45.4958	44.6064	43.7667	42.976	42.1295	41.2033	40.3028	39.4556	38.6481	37.8399	36.8769	35.9093	34.8112	33.7649	32.7125	31.6287	30.6405	29.6656	28.7889	27.9246	27.1119	26.389	25.7883	25.2354	24.7046	24.1913	23.7045	23.2041	22.6837	21.9557	21.2045	20.4497	19.7037	19.0017	18.3574	17.7763	17.3289	16.9573	16.6374	16.3587	16.1786	16.0178	15.8934	15.8043	15.7756	15.8216	15.9914	16.2694	16.6294	17.0934	17.5703	17.8685	18.2769	18.583	19.0663	19.291	19.3012	19.4943	19.7541	20.161	20.1029	20.0935	20.3947	20.8911	21.775	23.1197	25.2764	28.4119	32.3984	38.0686	44.7363	54.685	64.463	77.1787	91.4933	108.286	127.909	148.451	164.691	164.011	141.204	117.773	95.0294	78.1375	60.2657	49.5601	41.5243	34.8403	29.4557	24.7024	20.467	17.453	15.4778	14.0282	12.8268	11.3015	10.3364	9.27268	8.36605	7.87082	7.31581	6.62316	6.32407	6.14546	6.124	5.74686	5.44194	5.15428	4.70084	4.48292	4.28801	4.1093	3.88163	3.71078	3.49299	3.2731	3.08302	2.97722	3.04119	2.89234	2.84695	2.83796	2.85744	2.8679	2.82227	2.7124	2.64524	2.53286	2.26719	2.05401	1.9519	1.56615	1.17207	0.776694	0.418316	0.154421	0.0446338	0.0188545	0.0287033	0.0650566	0.0782265	0.095507	0.104604	0.126647	0.167599	0.217143	0.2816	0.374261	0.545557	0.71757	0.884025	1.0237	0.955204	0.874268	0.7689	0.668851	0.576567	0.486704	0.442319	0.402145	0.366243	0.338112	0.309871	0.282217	0.202988	0.204099	0.145456	0.113651	0.0486755	-0.0212323	-0.109301	-0.2163	-0.350063	-0.574363	-0.761005	-0.785133	-0.630006	-0.473581	-0.338461	-0.225622	0.00735009	0.228676	0.419721	0.464542	0.480598	0.462732	0.396831	0.294006	0.179474	0.0354543	-0.131619	-0.32069	-0.554517	-0.819093	-1.04993	-1.17586	-1.14067	-0.976116	-0.688184	-0.450976	-0.201101	0.038036	0.250843	0.425765	0.565871	-0.12155	0.0436778	0.0781315	0.0929176	0.0236763	-0.0393281	-0.116169	-0.174522	-0.207785	-0.126339	0.0235049	0.174219	0.301053	0.439499	0.561065	0.685044	0.793979	0.898451	0.982455	1.03175	1.237	1.26812	1.28253	1.32859	1.31236	1.21119	1.10837	0.99761	0.944555	0.90079	0.804329	0.743514	0.668544	0.602452	0.532608	0.464912	0.436742	0.405176	0.386253	0.35313	0.350969	0.367329	0.454964	0.550645	0.636965	0.512692	0.336677	0.229422	0.219486	0.229943	0.244186	0.257225	0.299056	0.33118	0.374904	0.391717	0.416072	0.330067	0.165467	-0.0107637	-0.124605	-0.211862	-0.269726	-0.24487	-0.224358	-0.178983	-0.0930875	0.00278154	0.115966	0.249194	0.402761	0.574668	0.739504	0.89612	0.948037	0.931199	0.877087	0.796263	0.617386	0.442029	0.288465	0.130532	-0.0152563	-0.144415	-0.270254	-0.353626	-0.41863	-0.434379	-0.417715	-0.376219	-0.286925	-0.202152	-0.143983	-0.533373	-0.643853	-0.656294	-0.566957	-0.401293	-0.181185	0.0347451	0.342346	0.637451	0.879244	1.03605	1.16625	1.23951	1.2618	1.18728	1.0826	1.00177	0.966456	0.966332	1.00205	1.04913	1.17631	1.32502	1.48237	1.67451	1.84247	2.00262	2.17213	2.32887	2.47961	2.62096	2.77112	2.90192	3.01855	3.1359	3.24264	3.28283	3.25798	3.17064	3.11333	3.15176	3.2045	3.2786	3.35598	3.4576	3.54934	3.6388	3.70055	3.71464	3.74179	3.82689	3.93391	3.95369	4.04911	4.0896	4.12732	4.14248	4.14473	4.04939	3.87743	3.78074	3.68098	3.63685	3.58914	3.65111	3.73517	3.88749	4.01997	4.17713	4.32873	4.47944	4.63596	4.65948	4.73648	4.82162	4.91925	5.05546	5.36669	5.64693	5.89607	5.89295	5.71847	5.91589	6.41108	7.11235	7.62712	8.03988	8.20346	8.31507	8.40283	8.50199	8.34229	8.02494	7.62638	7.41084	7.44442	7.64765	8.0074	8.50455	9.09705	9.72396	10.2828	10.8683	11.3008	11.7079	12.1531	12.6188	13.1239	13.6348	14.1913	14.745	15.2752	15.5795	15.9499	16.3084	16.6381	17.0072	17.4542	17.9048	18.3889	18.9509	19.5236	20.0728	20.5698	21.0409	21.5043	21.9595	22.4041	22.8467	23.2529	23.6288	23.9549	24.2238	24.432	24.6085	24.7493	24.9083	25.0206	24.9886	23.9073	24.037	24.2345	24.6936	25.2498	25.8484	26.4709	27.1495	28.2508	28.748	28.8915	28.7671	28.3146	27.4554	26.1899	24.4946	22.9143	21.3026	19.912	18.6813	17.5766	16.6263	15.9646	15.1431	14.685	14.7469	14.674	14.8446	15.1148	15.4352	15.7298	15.9183	16.0992	16.2372	16.366	16.4474	16.4741	16.4462	16.2178	15.7787	14.9868	14.291	13.4209	12.4001	11.2782	10.1408	9.09769	8.03835	6.89517	5.82203	4.90045	4.09932	3.48866	3.03156	2.69303	2.39614	2.18091	2.03883	1.96708	1.9439	1.96069	1.43181	1.12235	0.873366	0.65817	0.460665	0.291453	0.152173	0.0342711	-0.116291	-0.29083	-0.367566	-0.329693	-0.160044	-0.103424	-0.0935739	-0.140839	-0.175082	-0.177572	-0.172669	-0.0974334	-0.102601	-0.0907869	-0.0555477	-0.0114176	0.100048	0.223994	0.364838	0.498827	0.649335	0.779974	0.900441	0.795614	0.628001	0.432254	0.240754	0.22237	0.285154	0.306712	0.307131	0.301917	0.24616	0.199606	0.164575	0.0953709	0.023416	-0.0632114	-0.13593	-0.203412	-0.101603	0.0836968	0.226986	0.332509	0.395049	0.392953	0.365999	0.32197	0.258494	0.144231	0.026371	-0.103894	-0.227798	-0.320513	-0.389797	-0.427968	-0.391194	-0.459721	-0.444888	-0.434816	-0.408153	-0.386748	-0.336713	-0.287784	-0.222599	-0.159481	-0.0788012	0.00343044	0.101143	0.203536	0.155952	0.0876886	0.0220884	-0.0115411	-0.0245201	0.0341102	0.107939	0.21795	0.361227	0.539441	0.759883	1.01133	1.31017	1.6211	1.96318	2.16051	2.25947	2.55703	2.57089	3.13747
0	20	30.4552	29.9702	29.2667	28.3521	27.2616	26.1431	25.0728	24.0652	23.1285	22.2789	21.428	20.7013	20.0058	19.3125	18.6172	17.9355	17.1427	16.3505	15.5707	14.7935	13.9939	13.2035	12.4314	11.6929	10.9956	10.3495	9.84125	9.36314	8.92969	8.54444	8.20762	7.88372	7.55851	7.20202	6.7603	6.23342	5.66357	5.0045	4.38036	3.75133	3.19073	2.65726	2.18867	1.72586	1.32025	0.963097	0.680555	0.444684	0.220668	0.115423	0.172888	0.266292	0.37282	0.549696	0.720055	0.850623	0.932752	1.0025	1.03744	1.04226	1.01798	0.966581	0.894495	0.758792	0.597812	0.42552	0.220161	-0.00258646	-0.155878	-0.287291	-0.380354	-0.458615	-0.517408	-0.517224	-0.590074	-0.643965	-0.72603	-0.749584	-0.680101	-0.519065	-0.342694	-0.0741131	0.269194	0.654128	1.05224	1.44219	1.79705	2.12409	2.39873	2.61612	2.76124	2.85895	2.89787	2.83318	2.72399	2.59376	2.45565	2.31496	2.24778	2.21249	2.24005	2.30257	2.41766	2.57277	2.74188	2.8931	3.05595	3.2109	3.37826	3.54855	3.7293	3.88019	4.12544	4.28791	4.34945	4.40108	4.43015	4.46104	4.5135	4.55998	4.60202	4.65428	4.71724	4.72544	4.76018	4.80088	4.88795	4.98922	5.10792	5.26027	5.43161	5.47592	5.53825	5.61326	5.70311	5.87531	6.04203	6.21197	6.37726	6.54421	6.63065	6.73005	6.7579	6.82933	6.86721	6.91411	6.97693	7.06036	7.16375	7.25841	7.32872	7.41886	7.55464	7.69312	7.95701	8.32729	8.70512	9.10335	9.54018	9.99062	10.44	10.8259	11.1795	11.452	11.6015	11.8294	12.2433	12.6702	13.1947	13.7736	14.4275	15.1599	16.0403	16.2064	16.2697	16.2195	16.0923	15.9129	15.6919	15.4248	15.1883	14.8949	14.5826	14.2316	13.9122	13.6222	13.5036	13.4125	13.3741	13.3796	13.4329	13.591	13.7301	13.7247	13.6142	13.5145	13.036	12.8474	12.6867	12.6341	12.5703	12.56	12.5748	12.6174	12.6688	12.7133	12.7892	12.8619	12.956	13.0463	13.1379	13.2104	13.2409	13.2471	13.2264	13.1395	12.9781	12.6896	12.3375	11.991	11.6336	11.2703	10.9497	10.6689	10.3289	9.9873	9.58799	9.27268	8.97837	8.79046	8.56753	8.35281	8.12548	7.91478	7.72045	7.52837	7.35687	7.21444	7.07261	6.981	6.92806	6.86384	6.81412	6.76058	6.69191	6.61496	6.43975	6.2733	6.11414	5.95905	5.79534	5.62642	5.54028	5.41132	5.2878	5.17288	5.05815	4.8413	4.60252	4.3893	4.21145	4.07457	3.96944	3.86029	3.92684	4.0266	4.12694	4.25648	4.36009	4.41889	4.49529	4.56541	4.60911	4.60857	4.558	4.43349	4.25094	3.92747	3.58814	3.24908	3.11317	3.05331	3.01919	2.99192	2.92575	2.83892	2.7507	2.61724	2.44801	2.28062	2.10295	1.99286	1.88522	1.738	1.60075	1.43189	1.33126	1.27779	1.25231	1.17213	1.04853	0.867401	0.656996	0.433116	0.141531	-0.215027	-0.370259	-0.441648	-0.433593	-0.335954	-0.180363	-0.00287189	0.1817	0.397194	0.623838	0.828831	1.00466	1.05118	1.02468	0.907591	0.690503	0.436119	0.171316	-0.128301	-0.455396	-0.74845	-1.01633	-1.21041	-1.19471	-1.0473	-0.7871	-0.362232	0.0863269	0.460327	0.873266	1.25737	1.63545	1.97791	2.26681	2.49087	2.69492	2.82027	2.92898	2.97372	2.98098	2.9487	2.88028	2.738	3.49622	4.42409	5.62112	6.95631	7.19577	7.15576	7.0267	6.84472	6.54267	5.84318	5.69927	6.3173	7.3782	9.80976	10.4099	11.2369	12.1697	13.1003	14.0229	14.9416	15.8458	16.7355	17.7443	18.7404	19.8195	20.8288	21.7684	22.6742	23.5961	24.5822	25.6226	26.7433	28.037	29.4516	30.9997	32.635	34.3535	36.1105	37.8665	39.5085	41.0037	42.466	43.8116	45.0893	46.3247	47.431	48.3101	49.084	49.8147	50.4947	51.1572	51.8172	52.583	53.3216	54.027	54.5911	55.0947	55.4973	55.8592	56.1278	56.2973	56.3021	56.0554	55.7102	55.3055	54.8882	54.6145	54.3105	54.0227	53.7585	53.5049	53.2011	52.8392	52.2754	51.5731	50.7484	49.7535	48.6543	47.4408	46.0296	44.5299	43.1303	41.7101	40.3888	39.2226	38.2156	37.2758	36.4207	35.6782	35.0135	34.3855	33.7833	33.1858	32.783	32.0996	31.3209	30.4226	29.4208	28.3404	27.2366	26.2973	25.376	24.4447	23.4843	22.5219	21.6134	20.7622	20.033	19.3318	18.8659	18.2463	17.6277	17.0581	16.5481	16.1445	15.9299	15.7606	15.5367	15.2496	14.9392	14.6147	14.2632	13.9089	13.5867	13.4498	13.441	13.5671	13.8705	14.6481	15.0977	15.5275	15.9641	16.4806	17.0965	17.7226	18.3861	18.8898	19.2612	18.2426	18.7669	19.4539	20.0889	20.6112	21.1317	21.903	23.3359	25.4392	28.1401	31.7605	36.5664	43.0039	51.1301	62.327	75.7	92.7466	105.105	141.981	151.043	165.727	157.958	141.502	118.049	95.9588	72.1583	48.395	49.1069	38.9157	32.3023	27.8897	23.7463	20.0396	17.2307	15.0121	13.6316	12.3348	11.1388	10.0299	9.02771	8.09294	7.25122	6.50819	5.80871	5.22299	4.71038	4.25626	3.87137	3.54704	3.28321	3.08866	2.97362	2.96537	3.05808	3.24634	3.44599	3.60918	3.72016	3.74901	3.6414	3.41759	3.16777	2.87733	2.54219	2.16396	1.79409	1.43795	1.12334	0.840064	0.612789	0.440844	0.395009	0.427582	0.62376	0.819616	1.01723	1.22791	1.34969	1.44451	1.46017	1.4486	1.40056	1.34859	1.2451	1.13608	1.01214	0.869538	0.75435	0.611322	0.523377	0.434337	0.351554	0.269147	0.185715	0.0904237	0.00249842	-0.0943365	-0.23923	-0.327317	-0.523629	-0.668119	-0.669405	-0.592833	-0.481579	-0.352669	-0.222148	-0.033376	0.0670889	0.04149	-0.129546	-0.583842	-0.827352	-0.942204	-0.896088	-0.76624	-0.53407	-0.333184	0.00493983	0.27295	0.41405	0.450159	0.49503	0.494074	0.495803	0.417812	0.310896	0.196278	0.080554	-0.0686419	-0.236048	-0.359586	-0.473664	-0.583298	-0.629993	-0.628204	-0.576888	-0.45492	-0.329808	-0.207607	-0.0190892	0.183713	0.375904	0.552278	0.70138	0.784635	0.810734	0.767848	0.570454	0.371794	0.197842	0.139779	0.0749781	0.067182	0.0742444	0.0824921	0.0974149	0.0834079	0.0744764	0.056055	0.0395195	0.0117205	-0.00478144	0.0149885	0.00505319	-0.0452	-0.0979601	-0.100067	-0.0314627	0.0575456	0.186571	0.345904	0.516803	0.699106	0.891752	1.04599	1.22598	1.37666	1.44237	1.53765	1.60799	1.65098	1.66722	1.642	1.56452	1.39874	1.15952	0.910321	0.613024	0.323493	0.0504929	-0.120488	-0.28561	-0.410451	-0.529582	-0.603961	-0.655911	-0.614691	-0.538585	-0.382625	-0.165015	0.0585961	0.262281	0.441575	0.613548	0.794405	0.950338	1.09513	1.21032	1.32891	1.42126	1.52348	1.59142	1.57849	1.32904	1.23441	1.20869	1.2124	1.2138	1.22814	1.09252	0.953375	0.752719	0.529915	0.303187	0.0852969	-0.114582	-0.234496	-0.332632	-0.391983	-0.373295	-0.351159	-0.310456	-0.25832	-0.196337	-0.128478	-0.0713353	-0.0205506	0.0198285	0.04991	-0.0335988	-0.178691	-0.304506	-0.42148	-0.517486	-0.590941	-0.587308	-0.564767	-0.488442	-0.396889	-0.298111	-0.131875	0.0960069	0.348115	0.616935	0.881168	1.15725	1.38599	1.53385	1.70239	1.82199	1.94798	2.07972	2.1886	2.34694	2.53432	2.70432	2.8882	3.07095	3.25699	3.44683	3.64413	3.89761	4.13216	4.31036	4.44135	4.5364	4.51486	4.44777	4.29654	4.10379	3.88211	3.61426	3.35292	3.21158	3.18106	3.22171	3.28298	3.3875	3.50712	3.63648	3.76038	3.8879	4.02159	4.20682	4.39519	4.52544	4.60152	4.51996	4.41565	4.2977	4.15835	3.97006	3.85226	3.73509	3.65038	3.63285	3.71741	3.80839	3.91123	4.05158	4.21026	4.3724	4.56172	4.74809	4.93336	5.13936	5.34284	5.57483	5.71925	5.83371	5.95644	6.08299	6.21343	6.39207	6.64211	6.93801	7.20663	7.41482	7.59708	7.72644	7.82798	7.89001	8.0051	7.85325	8.44462	8.35776	8.28606	8.15483	8.09934	8.86378	9.82766	10.7393	11.5696	12.3089	12.9374	12.9252	13.2099	13.4891	13.8743	14.3515	14.7969	15.034	15.2455	15.4689	15.7182	15.9862	16.282	16.6095	16.9843	17.4084	17.8851	18.3928	18.9145	19.4847	20.0917	20.7564	21.4105	22.062	22.7054	23.3454	23.9879	24.5577	25.0921	25.5892	25.8375	25.9645	25.9964	25.8657	25.7309	25.5813	25.5522	25.1777	25.2303	25.4222	25.6806	26.005	26.4152	26.969	27.5678	28.3	28.9334	28.7984	28.324	27.6458	26.6032	24.085	22.2554	20.33	18.6075	17.0604	15.6596	14.3372	13.1283	12.8384	12.766	12.62	12.5906	12.8418	13.2686	13.7994	14.3894	14.9621	15.549	16.0448	16.3635	16.4298	16.3881	16.1753	15.9092	15.2151	14.9048	13.4712	12.0432	10.6483	9.33478	8.13774	7.0817	6.12977	5.3621	4.68789	4.09458	3.54906	3.07688	2.58741	2.24834	1.95699	1.7084	1.44754	1.20067	0.98224	0.786907	0.561953	0.37072	0.175529	0.0520629	-0.0550315	-0.132104	-0.164193	-0.17169	-0.132024	-0.0730148	0.023656	0.0855353	0.0636677	-0.0560656	-0.19207	-0.293645	-0.390942	-0.431748	-0.455609	-0.405817	-0.353801	-0.277783	-0.190763	-0.0848386	0.0111305	0.199648	0.378733	0.564275	0.717412	0.833824	0.941362	0.974542	0.910732	0.736833	0.561835	0.373979	0.188603	0.0914412	-0.0537863	-0.169087	-0.269556	-0.339982	-0.374645	-0.341851	-0.20978	-0.0262732	0.188918	0.39425	0.5446	0.624408	0.603688	0.511826	0.394749	0.231898	0.0716344	-0.10718	-0.268479	-0.494143	-0.71007	-0.791166	-0.803963	-0.675808	-0.517852	-0.336623	-0.192916	-0.0502644	0.0795712	0.182848	0.240192	0.269316	0.197718	0.103666	0.00387908	-0.105947	-0.212122	-0.245935	-0.292544	-0.313253	-0.286065	-0.244438	-0.166128	-0.0712152	0.0520017	0.199173	0.362624	0.541387	0.806245	1.01661	1.22989	1.47824	1.72744	2.00397	2.31502	2.65146	3.10599	3.64708	4.22103
20	-20.0732	30.5657	29.0814	28.0858	27.1926	26.3165	25.4237	24.6326	23.8041	22.9341	22.0135	21.0974	20.1559	19.1014	17.8921	17.0167	16.1697	15.3914	14.6115	13.8011	12.9966	12.3181	11.6314	11.0593	10.6377	10.3099	9.92608	9.70675	9.48486	9.14109	8.82483	8.51987	8.31914	7.89117	7.63296	7.41824	7.14865	6.81878	6.38499	5.93214	5.46441	4.87791	4.41735	3.88662	3.34456	2.78073	2.20916	1.72629	1.22155	0.652822	0.238978	-0.0909672	-0.283579	-0.382658	-0.269301	-0.124481	0.0998347	0.401292	0.724514	1.02413	1.32849	1.50709	1.72275	1.8466	1.8696	1.87944	1.9274	1.9147	1.75348	1.43266	1.29128	1.06126	0.803203	0.315088	-0.0219519	-0.276985	-0.337133	-0.355649	-0.386877	-0.384923	-0.335737	-0.336312	-0.288688	-0.217251	-0.128137	-0.0547676	0.0365919	0.0175012	-0.0534134	-0.093076	-0.0222613	0.129157	0.448111	0.78897	1.12872	1.49417	1.68561	1.81094	1.94945	2.08526	2.23574	2.3899	2.51614	2.68846	2.84783	2.97357	3.04613	3.04692	3.16694	3.30875	3.47302	3.57368	3.48875	3.34033	3.16834	3.09028	2.95233	2.76667	2.61963	2.49768	2.4023	2.34875	2.35423	2.36728	2.37034	2.42562	2.43789	2.5203	2.60291	2.63784	2.57979	2.60404	2.57585	2.35	2.9023	3.31773	3.62743	3.83606	3.8377	3.52913	3.51026	3.55764	3.92042	4.1925	4.60307	5.02845	5.44065	5.80655	6.05529	6.21327	6.21686	6.1921	6.16803	6.15706	6.23354	6.34615	6.53547	6.72099	6.9484	7.27167	7.6693	8.11352	8.54811	9.05878	9.62014	10.186	10.6589	11.0835	11.417	11.5971	11.8838	12.2811	12.6302	12.929	13.1678	13.3858	13.4455	13.5832	13.8119	13.911	13.8851	13.6782	13.4691	13.3178	13.1093	12.8479	12.5859	12.3442	12.3602	12.4036	12.455	12.5165	12.5224	12.438	12.3278	12.1423	11.8608	11.7559	11.5716	11.3214	11.0934	10.947	10.8638	10.8212	10.6903	10.7949	11.0963	11.3877	11.7093	11.834	11.91	12.1048	12.1628	11.9184	11.7913	11.65	11.473	11.2852	11.0291	10.7191	10.5004	10.2045	10.0906	9.9841	9.83292	9.78634	9.69327	9.56627	9.32494	8.96529	8.58322	8.15239	7.74151	7.28104	6.88013	6.5004	6.02739	5.7874	5.60798	5.52148	5.49709	5.55392	5.61361	5.68378	5.74483	5.81512	5.90411	5.93341	5.88362	5.7811	5.67062	5.59861	5.5427	5.33112	5.03109	4.71082	4.28375	3.95544	3.63913	3.45446	3.31316	3.13238	2.9411	2.84887	2.8438	2.79445	2.86638	2.99677	3.28567	3.39476	3.52287	3.68951	3.84104	3.74899	3.6552	3.58134	3.47742	3.40712	3.33668	3.28627	3.14913	2.98978	2.86161	2.77393	2.70859	2.70413	2.75101	2.73244	2.67617	2.52972	2.43112	2.22183	1.97696	1.70376	1.45282	1.23793	0.97386	0.794919	0.55823	0.429501	0.274889	0.0512047	-0.057525	-0.0838577	-0.0958258	-0.077518	-0.100596	-0.160795	-0.0658354	-0.0212193	0.0257057	0.0790032	0.0746838	0.078617	0.0341903	-0.0746545	-0.245136	-0.31924	-0.416132	-0.457392	-0.472041	-0.409457	-0.253189	-0.00724621	0.315817	0.615525	0.880987	1.08939	1.33323	1.51842	1.72796	1.91903	1.96329	1.97479	1.93846	1.82845	1.6905	1.61744	1.58481	1.77252	1.97509	2.25568	2.57651	2.91942	3.24686	3.48872	3.68468	4.03303	4.45739	4.8084	5.05038	5.29327	5.50408	5.73794	5.99997	6.2836	6.48453	6.66877	6.75436	6.86066	7.45248	8.41679	9.43201	10.298	10.9674	11.5687	12.322	13.0871	13.8835	14.6248	15.5923	16.6219	17.555	18.5263	19.4806	20.4587	21.4611	22.5457	23.5994	24.7177	25.829	27.018	28.2517	29.4256	30.4637	31.5734	32.7659	34.0485	35.4435	36.9215	38.4636	39.9491	41.4127	42.7996	44.0239	45.1461	46.2145	47.0758	47.8547	48.4136	49.1116	49.8297	50.3866	50.9008	51.1932	51.2946	51.5426	51.6116	51.6544	51.4841	51.3967	51.3932	51.2628	51.0182	50.7696	50.4292	50.0785	49.5187	49.0832	48.6535	48.2822	47.7603	47.0968	46.3674	45.5734	44.6468	43.8073	42.9247	41.8037	40.6792	39.9918	39.1631	38.1615	37.1547	36.1545	35.1628	34.2737	33.4577	32.6765	32.0061	31.246	30.5324	29.8	29.0214	28.214	27.4663	26.7076	25.7122	24.784	23.9972	23.2194	22.57	21.9345	21.3109	20.7307	20.1585	19.6241	18.9906	18.2769	17.5366	16.9562	16.2647	15.6204	15.1245	14.543	14.1675	13.9581	13.5912	13.2347	13.1132	13.2931	13.2484	13.3276	13.4206	14.5321	17.7652	17.9638	16.1254	14.9481	15.6224	16.9914	18.4338	19.7343	21.2778	21.4227	21.3544	20.5328	19.1291	18.1065	16.9893	16.1518	15.4666	16.2671	16.8283	18.1347	20.0903	22.7718	26.5377	31.3857	37.8268	44.624	53.3384	63.2859	74.9518	90.5311	107.824	125.34	123.154	132.635	114.531	95.8847	75.587	58.3423	50.4535	43.0041	35.6618	29.7025	24.2977	20.007	16.9804	14.5939	13.0245	11.6365	10.4826	9.7003	8.39529	7.58792	7.43377	7.03006	6.60141	6.21934	5.70888	4.59814	4.14547	3.55078	3.21962	2.9526	2.76325	2.69463	3.01505	3.02512	3.11971	3.20586	3.25659	3.22746	3.05988	2.50709	2.0326	1.65363	1.42374	1.22805	0.995016	0.805909	0.604604	0.365822	0.148027	0.00206608	0.0706809	0.150116	0.442994	0.515155	0.648758	0.709417	0.765435	0.831092	0.844578	0.820809	0.957253	1.09599	1.22031	1.28611	1.25126	1.20656	1.24823	0.934878	0.698604	0.322743	-0.0752409	-0.369179	-0.40472	0.0129578	0.867602	0.246735	-0.0575914	-0.118539	-0.190308	-0.309395	-0.427293	-0.551073	-0.65851	-0.771126	-0.838367	-0.814362	-0.748491	-0.620813	-0.552965	-0.614874	-0.529059	-0.427357	-0.396714	-0.219885	-0.116816	-0.0349293	0.0970806	0.23525	0.385287	0.387547	0.376906	0.317658	0.207715	0.126937	0.196875	0.182332	0.139101	0.125669	0.122859	0.190775	0.189064	0.175683	0.229646	0.372382	0.388235	0.427928	0.428461	0.269939	0.261747	0.355507	0.524667	0.63447	0.773778	0.877516	1.0134	0.983763	0.913213	0.822271	0.753705	0.687633	0.560342	0.546312	0.416143	0.249275	0.00718047	-0.221402	-0.374929	-0.424138	-0.367425	-0.243487	-0.176951	-0.126995	-0.11558	-0.0320062	-0.0299154	-0.05933	-0.0754278	-0.0812165	-0.149151	-0.226696	-0.171655	-0.0968605	0.0283728	0.178186	0.294652	0.424134	0.474738	0.503247	0.690724	0.755844	0.829787	0.754584	0.635256	0.542991	0.324199	0.0978803	-0.190537	-0.419862	-0.682664	-0.84431	-0.931884	-0.902898	-0.878506	-0.853131	-0.721101	-0.635105	-0.460519	-0.132752	0.172937	0.411152	0.554328	0.623393	0.659625	0.668637	0.570754	0.546667	0.525115	0.425675	0.257742	0.167339	0.0335242	-0.152007	-0.403746	-0.644312	-0.754293	-0.788677	-0.745053	-0.75632	-0.664607	-0.534928	-0.448207	-0.258683	-0.0620155	0.0905173	0.182684	0.310445	0.355878	0.328983	0.259587	0.23304	0.205307	0.131145	-0.0114778	-0.186566	-0.241238	-0.214605	-0.266943	-0.294463	-0.290331	-0.349278	-0.311356	-0.244095	-0.199396	-0.114569	-0.148584	-0.105254	0.0717172	0.174617	0.240403	0.358281	0.44216	0.300249	0.247424	0.0683162	0.0938007	0.178748	0.221518	0.311287	0.441925	0.666531	0.918048	1.18632	1.40396	1.4583	1.41098	1.26404	1.25227	1.16853	0.991749	0.702118	0.440506	0.195718	0.0639994	-0.0222078	-0.019307	0.0440396	0.12469	0.339306	0.556018	0.816955	1.14088	1.45646	1.69337	1.8482	2.06527	2.22135	2.38547	2.40533	2.32396	2.21554	2.02792	1.84461	1.50922	1.36456	1.30768	1.22054	1.18538	1.21135	1.24332	1.27613	1.41514	1.57338	1.7302	2.03652	2.4205	2.72109	2.80918	2.83434	2.87329	2.86482	2.72114	2.66796	2.63263	2.55319	2.50803	2.43965	2.41414	2.50915	2.62251	2.8092	3.1229	3.4381	3.86313	4.21553	4.56761	4.83802	5.05809	5.36207	5.57054	5.6078	5.66518	5.76209	5.81655	5.87856	6.00065	6.17223	6.33223	6.54457	6.91348	7.20995	7.4354	7.63431	7.83183	7.92652	8.09118	8.41393	8.72717	9.09365	9.48858	9.85151	10.3394	10.8523	11.4966	12.277	12.8937	13.3672	13.7726	14.1519	14.4397	14.5901	14.5778	14.3328	14.4533	14.5837	14.8355	15.1955	15.9212	16.4751	17.1767	17.9301	18.7529	19.677	20.4583	21.0653	21.5391	21.8802	22.0561	22.094	22.0313	21.7376	21.5523	21.6012	21.3992	21.469	21.5595	21.7821	22.2037	23.1497	24.0387	25.6471	25.2797	25.1502	24.7601	24.1851	22.3126	20.6647	18.7722	16.9534	15.1792	13.6654	12.3782	12.1469	11.5154	10.9925	10.6015	10.4017	10.4065	10.6726	11.1956	11.7179	12.2025	12.7161	12.8393	13.1303	13.2412	13.2379	13.0509	12.7661	12.5173	11.9926	12.0298	11.1759	10.0362	8.80189	7.6789	6.437	5.29725	4.21596	3.3732	2.64363	2.16109	1.62946	2.01425	2.04566	2.08828	2.22658	2.33308	2.21795	1.94947	1.48985	1.23741	0.896829	0.468719	-0.0620108	-0.927109	-1.18621	-1.26153	-1.28455	-1.26834	-1.17116	-1.01117	-0.707843	-0.275162	0.0452478	0.490452	0.894623	1.26121	1.40379	1.5858	1.68681	1.69967	1.62823	1.57093	1.5344	1.55196	1.59208	1.53922	1.51979	1.42698	1.33774	1.2671	1.12457	1.07327	1.05276	0.951643	0.834457	0.730663	0.518885	0.32826	0.0708634	-0.115613	-0.169619	-0.147484	-0.0671213	0.0940675	0.170078	0.284976	0.413141	0.547982	0.801326	1.13477	1.33488	1.54115	1.64743	1.76363	1.81351	1.80626	1.68307	1.58097	1.46698	1.3969	1.34166	1.3397	1.31855	1.32861	1.33063	1.41362	1.44473	1.49111	1.65731	1.84019	2.12312	2.14133	2.16402	2.20502	2.06879	1.90984	1.62605	1.37936	1.04641	0.646919	0.248627	0.0746172	-0.0149977	0.219547	0.253917	-0.204201	-0.554708	-0.75742	-0.816465	-0.755272	-0.466956	0.0491296	1.28276	2.70727	3.5709	4.26297	2.41131
20	-0.0366178	52.0807	51.1547	50.0998	48.9798	47.735	46.3932	44.9083	43.4558	42.016	40.6698	39.353	37.9504	36.5306	35.1238	33.7517	32.4365	31.1686	29.9525	28.8091	27.8352	26.7592	25.6956	24.6824	23.7353	22.7871	21.9121	21.0795	20.2712	19.5533	18.6348	17.6647	16.7135	15.7879	14.88	13.9976	13.167	12.3813	11.623	10.8898	10.1835	9.50699	8.86112	8.24948	7.68505	7.14452	6.64167	6.16539	5.72239	5.31878	4.9326	4.57309	4.32338	3.95675	3.54282	3.02394	2.53993	2.11613	1.78713	1.43978	1.09258	0.725604	0.45089	0.254884	0.139703	0.0642992	0.0440596	0.0419226	0.0562656	0.124494	0.115362	-0.0137632	-0.151851	-0.314368	-0.445263	-0.527623	-0.593903	-0.278921	0.027836	0.061011	0.0660239	0.0524317	0.0154213	-0.0324723	-0.172762	-0.291512	-0.334465	-0.292093	-0.0871601	0.0994662	0.298866	0.426214	0.498422	0.431369	0.392089	0.340434	0.271978	0.20069	0.118171	0.0623367	0.0114168	-0.0676337	-0.181891	-0.248662	-0.246442	-0.138843	-0.0220276	0.122108	0.28004	0.421338	0.457024	0.476338	0.531144	0.65334	0.796355	0.836315	0.829316	0.835738	0.948018	1.104	1.26612	1.43322	1.56471	1.73813	1.86162	1.97378	2.01569	2.01463	2.01754	2.05775	2.14604	2.23142	2.37142	2.39348	2.36301	2.31153	2.26783	2.36542	2.56011	2.83404	3.06581	3.28223	3.27446	3.13115	3.27791	3.47436	3.73955	4.11945	4.87096	5.80548	6.22527	6.38735	6.21826	6.18894	6.29036	6.44793	6.58404	6.72046	6.84391	6.97508	7.20965	7.4565	7.79146	8.12562	8.65534	9.13269	9.61887	10.078	10.5391	10.998	11.3741	11.7179	12.0506	12.4204	12.7665	13.0685	13.2409	13.4012	13.4055	13.3677	13.2729	13.1674	13.0596	12.9196	12.7201	12.439	12.1865	11.9642	11.8099	11.7038	11.6591	11.6541	11.684	11.7281	11.7585	11.771	11.7601	11.7118	11.6056	11.5566	11.728	11.8278	11.9531	11.8058	11.8821	12.095	12.2225	12.2999	12.2841	12.1614	11.9167	11.7566	11.6739	11.5838	11.5099	11.4374	11.348	11.1654	10.9696	10.7887	10.6732	10.5984	10.5622	10.5223	10.4401	10.374	10.1354	9.88357	9.61939	9.34451	9.04741	8.74142	8.41362	8.09619	7.74976	7.37308	6.78936	6.32935	6.18436	6.12492	6.22938	6.43753	6.7239	7.06386	7.41478	7.71724	7.96041	8.10243	8.1236	7.88035	7.67701	7.36435	6.81678	6.57641	6.36745	6.18301	5.98076	5.65209	5.33452	5.0323	4.79896	4.6214	4.50557	4.44524	4.42667	4.43228	4.40709	4.33241	4.39889	4.20845	3.96301	3.69882	3.47726	3.28018	3.04685	2.84225	2.69954	2.56926	2.45021	2.36024	2.29167	2.25533	2.24847	2.26372	2.29454	2.37588	2.42573	2.36388	2.22685	2.00636	1.83689	1.79978	1.75427	1.66058	1.41439	1.35811	1.33213	1.31382	1.2097	1.0785	0.829373	0.562197	0.301553	0.043903	-0.126114	-0.27847	-0.40068	-0.47133	-0.4845	-0.426185	-0.198858	0.0870266	0.342453	0.428592	0.34178	0.237126	0.131801	0.00735372	-0.112106	-0.181078	-0.212433	-0.277621	-0.277538	-0.238623	-0.172423	-0.0828279	0.0873683	0.335774	0.617999	0.875525	1.11645	1.32729	1.36626	1.20562	1.05446	0.957774	0.982498	1.08091	1.25708	1.46694	1.69467	1.97299	2.32991	2.69419	3.08657	3.45375	3.83737	4.14105	4.3522	4.49987	4.56525	4.59607	4.632	4.72858	4.87972	5.08149	5.35099	5.68047	6.02778	6.45157	6.96026	7.62186	8.34055	9.12685	10.0315	10.9341	11.84	12.7046	13.5497	14.3248	15.2521	16.1806	17.0988	18.0113	18.883	19.7436	20.5487	21.3327	22.0741	22.9061	23.6946	24.4147	25.3919	26.3117	27.2821	28.2396	29.24	30.2559	31.2836	32.3448	33.4209	34.5007	35.5905	36.7053	37.8939	39.1368	40.4339	41.6365	42.6994	43.7016	44.6283	45.4927	46.2604	46.9108	47.3907	47.8088	48.1297	48.1853	48.2493	48.2899	48.3631	48.555	48.6295	48.6684	48.6314	48.5306	48.2847	47.8283	47.0863	46.5489	45.8105	44.9844	44.111	43.2393	42.3977	41.5771	41.2294	40.4082	39.5967	38.7898	38.0204	37.3076	36.4855	35.7529	34.9488	34.0763	33.2311	32.3537	31.3536	30.2845	29.1131	27.917	26.6898	25.4045	24.094	22.5742	21.3088	20.175	19.2309	18.4948	17.9802	17.6364	17.4115	17.2675	16.9684	16.5842	16.1034	15.599	14.9834	14.1876	13.3985	12.7174	12.1042	11.5483	11.0077	10.5297	10.1423	10.0073	10.0268	10.1602	10.4514	10.7802	11.0592	11.2954	11.495	11.6538	11.7775	11.8566	11.9347	12.0133	12.1594	12.358	12.4659	12.4225	12.4829	12.6609	12.9836	13.0954	13.2611	14.0215	14.0577	14.5082	15.075	16.1938	17.4996	19.2565	21.5501	24.5195	28.7223	33.8169	40.234	47.2778	57.0642	69.6856	82.7955	98.6166	115.529	126.094	115.478	104.805	88.9156	72.9165	59.2578	47.2194	35.5467	25.1867	25.6394	21.25	17.745	14.595	13.3364	10.207	8.48864	7.36735	6.69916	5.84555	5.2218	4.37208	3.83248	3.28743	2.82021	2.45868	2.21569	1.88135	1.61404	1.31034	1.14013	1.01372	0.996196	1.06237	1.03635	1.39141	1.39015	1.37825	1.34587	1.29222	1.2513	1.2114	1.15797	1.08213	0.956588	0.773374	0.541101	0.379185	0.255098	0.0343123	-0.425331	-0.576073	-0.649155	-0.610031	-0.699349	-0.577602	-0.555946	-0.40805	-0.382516	-0.365831	-0.246626	-0.0636459	0.261091	0.715586	1.14835	1.49193	1.57115	1.49096	1.21122	0.902824	0.690146	0.496432	0.333697	0.123882	-0.0860145	-0.279721	-0.323484	0.00966148	0.052474	0.103506	0.179283	0.213743	0.192597	0.200317	0.199351	0.195583	0.107197	0.0106716	-0.0463981	-0.0769266	-0.0780577	-0.0478642	-0.00356989	0.0687064	0.147436	0.24474	0.348972	0.469762	0.559106	0.642176	0.699344	0.69529	0.729293	0.896613	0.955619	0.909192	0.874722	0.849192	0.841424	0.836749	0.855305	0.879264	0.873375	0.824641	0.801223	0.78324	0.850706	0.962955	0.998663	1.20881	1.27319	1.24405	1.0587	1.06326	1.02642	0.958783	0.864284	0.739419	0.013301	-0.0725259	-0.154367	-0.262831	-0.335623	-0.360784	-0.33618	-0.253609	-0.130526	0.0382519	0.293399	0.603103	0.79335	0.942553	1.07297	1.20679	1.32516	1.45798	1.58366	1.69775	1.80633	1.91337	1.99527	2.03028	2.0423	2.02113	1.91037	1.76584	1.59867	1.40938	1.2735	1.23199	1.23159	1.24509	1.3483	1.47066	1.61593	1.70913	1.77948	1.69733	1.65126	1.60367	1.50566	1.35765	1.17202	0.918017	0.541316	0.213281	-0.0331125	-0.195658	-0.237826	-0.31313	-0.34469	-0.329734	-0.284209	-0.219583	-0.124248	-0.00122587	0.141455	0.329387	0.523889	0.720417	0.92124	1.05538	1.11111	1.15251	1.15763	1.05755	1.01388	0.992614	1.02059	1.07642	1.05232	0.888584	0.73178	0.564376	0.403742	0.264875	0.165918	0.125171	0.0666053	-0.137711	-0.316071	-0.478366	-0.593957	-0.632559	-0.67363	-0.54278	-0.30857	-0.11207	0.0396405	0.12495	0.166296	0.110024	0.0477607	0.0183199	0.0284273	0.0327415	0.0388562	0.0195454	-0.00703105	-0.0755003	-0.134567	-0.200922	-0.250119	-0.284945	-0.277259	-0.172853	-0.11751	-0.0924486	-0.102809	-0.0571598	0.0860878	0.342464	0.613874	0.922923	1.23792	1.55397	1.85126	2.12404	2.37351	2.54267	2.69443	2.56536	2.35825	2.04462	1.80025	1.61954	1.46148	1.32944	1.24169	1.14992	1.11341	1.11652	1.20887	1.34173	1.48073	1.61629	1.74278	1.86154	1.97915	2.08432	2.20959	2.33466	2.45516	2.57132	2.62716	2.6336	2.44834	2.35712	2.34054	2.31168	2.28793	2.26136	2.22491	2.19247	2.15723	2.16129	2.15444	2.13406	2.11248	2.05194	1.91045	1.79035	1.63519	1.47713	1.30641	1.34889	1.40131	1.63422	2.09284	2.66511	3.14402	3.50419	3.54544	3.60482	3.61661	3.60106	3.8542	4.05897	4.27065	4.47804	4.68906	4.8556	5.03925	5.22526	5.39984	5.63469	5.88696	6.13748	6.40094	6.69835	6.95234	7.24202	7.45049	7.68227	7.89355	8.07658	8.24422	8.38986	8.52938	8.61781	8.6537	8.69452	8.93941	9.21854	9.53483	9.89916	10.369	10.9288	11.5299	12.1652	12.7938	13.4627	14.0957	14.7249	15.2489	15.6928	16.2344	16.7807	17.2571	17.6648	18.0161	18.2856	18.5203	18.7445	18.9158	19.0634	19.1244	19.1166	19.0627	18.9729	18.9359	18.9192	18.8923	18.9636	19.2247	19.9676	20.7869	21.6722	22.5726	23.4527	24.2015	24.6292	24.651	24.2187	23.3441	21.9914	19.946	17.9855	16.1348	14.4976	13.1162	12.9551	12.274	11.8112	11.5045	11.3138	11.2525	11.2623	11.3273	11.4427	11.587	11.7515	11.9171	12.0423	12.1373	12.1559	12.1581	12.0784	11.8943	11.5257	11.0633	10.4421	9.60258	8.68498	7.70013	6.68202	5.72199	4.7787	3.88078	3.07282	2.32665	1.61985	1.00344	0.496466	0.195766	0.0788136	0.0669846	0.0934185	0.177702	0.228178	0.291541	0.350801	0.391742	0.418166	0.406571	0.339118	0.238752	-0.118578	-0.290621	-0.407652	-0.406546	-0.350121	-0.24092	-0.128368	0.00962767	0.200512	0.360562	0.404465	0.415877	0.397005	0.347786	0.190974	0.0191311	-0.153288	-0.318196	-0.467407	-0.50603	-0.553732	-0.571353	-0.554376	-0.519795	-0.469438	-0.395876	-0.318527	-0.202585	-0.0949715	0.0112458	0.0872281	0.107328	0.117351	0.0622047	-0.0137008	0.0517323	0.242882	0.53096	0.854629	0.907749	0.943407	0.998027	1.05725	1.12649	1.09698	1.08722	1.05393	0.975639	0.801903	0.330422	0.0930744	0.115204	0.158667	0.223078	0.304113	0.39846	0.487055	0.507506	-1.09075e-005	-0.0344726	-0.0245284	-0.0143282	0.00562285	-0.00362445	-0.0125833	-0.0750617	-0.22085	-0.419751	-0.635011	-0.711905	-0.746313	-0.708884	-0.553092	-0.352462	-0.169389	-0.0130272	0.111301	0.21232	0.3095	0.393406	0.460192	0.509636	0.520574	0.474078	0.358819	0.229232	0.0267417	-0.161182	-0.133269	-0.026232	0.219629	0.583452
20	20	45.6925	43.851	42.061	40.3294	38.7379	37.2379	35.732	34.2776	32.9197	31.6173	30.4067	29.2801	28.2093	27.1597	26.1574	25.1664	24.2081	23.3789	22.4854	21.5661	20.6739	19.8109	18.9727	18.1489	17.2544	16.3836	15.5405	14.7135	13.9112	13.1287	12.374	11.6464	10.9473	10.2946	9.67279	9.09179	8.53065	7.99078	7.45541	6.90542	6.29079	5.71989	5.1656	4.63214	4.15829	3.75653	3.37699	2.98318	2.60787	2.22217	1.83139	1.43317	1.05592	0.817433	0.711884	0.630661	0.502367	0.37506	0.264185	0.159612	0.0968473	0.0940348	0.161496	0.312912	0.423288	0.442148	0.374824	0.221253	-0.0446632	-0.359191	-0.691853	-0.831542	-0.907333	-0.901367	-0.862276	-0.742946	-0.789685	-0.635901	-0.461881	-0.272355	-0.0383419	0.191144	0.390832	0.548388	0.671205	0.609808	0.539943	0.410439	0.254919	0.0767739	-0.0803576	-0.163596	-0.107782	-0.0619934	0.00505811	0.062246	0.151267	0.290145	0.468371	0.664713	0.885901	1.11451	1.34244	1.58724	1.81941	1.9881	2.15092	2.262	2.2839	2.22253	2.13304	2.00634	1.85844	1.71872	1.55238	1.38003	1.45334	1.56482	1.73586	1.91713	1.98612	1.96887	2.12828	2.53406	2.95687	3.36456	3.65748	3.87685	4.02231	4.14447	4.19087	4.15592	4.0113	3.79494	3.55064	3.31392	3.09812	2.94907	2.82567	2.75531	2.91995	3.32607	3.55048	3.75315	3.935	4.119	4.25911	4.41794	4.55924	4.7129	4.86409	5.02122	5.18054	5.3957	5.52062	5.33848	5.66506	5.9978	6.55127	7.24983	8.09532	9.01426	9.77986	10.3838	10.4754	10.6376	10.873	11.1458	11.4992	11.9063	12.6917	13.0896	13.511	13.939	14.3377	14.6837	14.9402	14.9817	14.9723	14.8964	14.778	14.6173	14.4253	14.1945	13.9428	13.6634	13.3244	12.9779	12.6469	12.285	11.9463	11.7433	11.5756	11.4251	11.3129	11.2744	11.221	11.2756	11.3507	11.4418	11.543	11.6474	11.7651	11.8614	11.9572	12.0076	11.9787	11.8866	11.6836	11.4782	11.3081	11.1549	11.0189	10.917	10.8315	10.8114	10.8134	10.8246	10.8972	10.9717	10.9318	10.8699	10.7739	10.5223	10.2723	10.0572	9.84294	9.65713	9.51915	9.39248	9.29798	9.21215	9.12104	9.02275	8.91564	8.74153	8.56373	8.3539	8.10099	7.72538	7.33427	6.89803	6.54122	6.23497	6.01667	6.03656	6.06822	6.08019	6.02868	5.96937	5.89545	5.81843	5.70152	5.60661	5.47267	5.32649	5.07919	4.85983	4.68077	4.58764	4.46582	4.39135	4.36523	4.40818	4.41594	4.40709	4.30029	4.15271	4.01472	3.86981	3.71031	3.51075	3.12017	2.89219	2.76687	2.70883	2.68945	2.69712	2.75022	2.77903	2.81831	2.84865	2.9488	2.95852	2.8993	2.62618	2.34234	2.06219	1.86489	1.68048	1.50079	1.35819	1.23001	1.12137	1.02155	0.899084	0.744954	0.612115	0.504884	0.434607	0.467901	0.515558	0.533975	0.406975	0.189392	-0.062148	-0.343698	-0.541123	-0.685259	-0.809041	-0.89709	-0.958191	-0.896241	-0.800194	-0.677475	-0.535038	-0.393748	-0.210466	0.0143816	0.222355	0.376829	0.427319	0.429703	0.389836	0.320966	0.265771	0.255057	0.166301	0.160359	0.15059	0.109079	0.0605923	-0.000300117	-0.054201	-0.0860624	-0.0946166	-0.0577567	0.0398368	0.167924	0.349205	0.618638	0.889398	1.00918	1.27544	1.58684	1.93583	2.20296	2.47184	2.7121	2.86522	3.01137	3.0079	2.93308	2.85598	2.86872	2.89583	2.73172	2.72831	3.03202	3.47673	4.13466	5.0009	6.13935	7.46896	8.84381	10.0533	11.013	11.8251	12.6649	13.4536	13.7282	14.2466	14.4605	14.6445	15.1159	15.7631	17.2331	18.2024	19.2033	20.2923	21.3958	22.5424	23.7396	24.8289	26.1754	27.6079	29.0167	30.4686	32.1204	33.6042	34.9802	36.1627	37.1673	38.0157	39.1594	40.1878	40.8925	41.2945	40.7906	41.0986	41.6621	42.1808	42.7113	43.3725	44.2596	45.1437	45.8397	46.3725	46.6683	46.6108	46.7036	46.7054	46.5915	46.3823	46.0657	45.5988	44.943	44.1256	43.3758	42.7475	42.0967	41.3963	40.6358	39.8453	39.0014	38.1863	37.3406	36.4978	35.622	34.616	33.6136	32.6124	31.7036	30.8498	29.9492	29.0918	28.2736	27.4718	26.7916	26.1618	25.4564	24.7495	24.0592	23.3351	22.6353	21.9496	21.2896	20.6501	19.9807	19.3148	18.6714	18.0263	17.3894	16.7653	16.1135	15.4908	14.947	14.485	14.0548	13.7164	13.4029	13.0892	12.587	12.0716	11.5908	11.3011	10.8924	10.455	9.96018	9.50192	9.01376	8.62944	8.36764	8.26646	8.26117	8.41681	8.72946	9.25633	9.78412	10.276	11.0731	11.4416	11.8644	12.126	12.4849	12.5389	12.5457	13.0838	13.0452	13.1611	13.1103	13.1307	13.6151	14.5753	15.9181	18.049	20.7978	24.2648	28.824	35.1841	43.0022	51.8853	64.2188	80.1715	95.0127	110.504	110.76	103.757	97.0177	78.8682	65.5811	53.6487	45.0307	37.4479	30.0482	24.4613	20.0657	16.4236	13.8959	11.6971	10.1129	8.82041	7.59827	6.75845	5.6763	5.02367	4.41754	3.88036	3.44363	3.08086	2.7121	2.4113	2.14774	1.94768	1.7921	1.70729	1.67381	1.67271	1.69134	1.68089	1.67043	1.64707	1.61469	1.568	1.57562	1.58286	1.57909	1.6041	1.61388	1.59802	1.53065	1.42609	1.26418	1.05961	0.807721	0.504806	0.196194	-0.0866755	-0.303483	-0.466022	-0.483726	-0.367122	-0.279177	-0.191024	-0.0498171	0.117924	0.321043	0.473476	0.610167	0.715297	0.787236	0.828027	0.84127	0.818719	0.774565	0.722856	0.651591	0.539557	0.412073	0.177176	-0.113453	-0.234402	-0.269005	-0.202726	-0.112235	-0.0634001	-0.0302548	-0.00717893	-0.0101939	-0.0144137	0.0347211	0.300516	0.657047	0.84523	0.834536	0.705567	0.531501	0.319879	0.178333	0.304589	0.44539	0.933327	0.997674	0.669047	-0.0607797	-0.113723	-0.410436	-0.591714	-0.732292	-0.840278	-0.883663	-0.891125	-0.802749	-0.628857	-0.48694	-0.352779	-0.270613	-0.242281	-0.290824	-0.322588	-0.226537	-0.0608999	0.155413	0.403329	0.582571	0.775396	0.976425	1.19711	1.47277	1.73147	1.78645	1.85985	1.94276	2.01549	2.03972	2.01629	1.91654	1.77327	1.59028	1.51059	1.45175	1.34242	1.17407	0.759782	0.611107	0.562014	0.575078	0.633987	0.719164	0.848659	1.06708	1.31571	1.61222	1.61483	1.49968	1.36822	0.970771	0.713163	0.298231	0.173298	0.119332	0.132696	0.151076	0.195573	0.273998	0.340876	0.413179	0.462104	0.639075	0.72034	0.783962	0.856987	0.991145	1.06099	1.11386	1.13571	1.13739	1.1312	1.10748	1.10399	1.15561	1.17947	1.09108	0.873396	0.643098	0.419274	0.291158	0.270721	0.264865	0.215391	0.156892	0.103142	0.068771	-0.0149156	-0.00653005	0.0444048	0.171417	0.327489	0.52841	0.804561	1.05365	1.27731	1.3476	1.41669	1.3902	1.33063	1.21196	1.04863	0.836757	0.540253	0.28577	-0.0777363	-0.409871	-0.706597	-0.940938	-1.12046	-1.25365	-1.34168	-1.37147	-1.35997	-1.31181	-1.24148	-1.1696	-1.07454	-0.967046	-0.851422	-0.711773	-0.576888	-0.5719	-0.602334	-0.639648	-0.676307	-0.669983	-0.619873	-0.557166	-0.457849	-0.305164	-0.0669677	0.275198	0.603372	0.883076	1.12568	1.27023	1.3228	1.31481	1.22236	1.13372	1.16995	1.10062	0.985844	0.85557	0.720643	0.608854	0.550362	0.515067	0.571034	0.669272	0.808341	0.805737	0.744456	0.672534	0.604061	0.540421	0.489043	0.454084	0.425039	0.436917	0.439165	0.460346	0.470394	0.538736	0.600946	0.666116	0.721847	0.746998	0.764484	0.71476	0.671945	0.609747	0.53433	0.524052	0.475979	0.414836	0.349498	0.299088	0.272235	0.278221	0.292657	0.354889	0.455451	0.632976	0.84569	1.19407	1.41906	1.61783	1.86269	2.0658	2.22537	2.36245	2.43318	2.41855	2.36513	2.30132	2.23804	2.24288	2.23514	2.24341	2.23084	2.28988	2.56788	2.7422	2.93436	3.10869	3.40371	3.5586	3.61694	3.62515	3.60593	3.53232	3.35425	3.19156	3.0764	3.06	3.15589	3.33074	3.60447	3.94037	4.35778	4.83108	5.36698	5.95097	6.63012	7.19545	7.5706	7.9314	8.20088	8.45492	8.67252	8.78787	8.93834	9.15875	9.49285	9.90726	10.4326	11.1009	12.0044	12.6518	13.3256	13.9628	14.5571	15.0944	15.5273	15.8179	15.9986	16.2561	16.394	16.6326	16.8296	16.8631	16.8766	16.8657	16.8533	16.812	16.6745	16.5144	16.5632	16.2801	16.6756	17.1702	18.1098	18.3521	18.7534	19.3285	20.2109	21.2496	22.0706	22.3039	22.052	20.9746	19.4953	17.6854	15.8336	14.0665	12.4589	11.0646	11.0233	10.3368	9.33733	8.87382	8.6235	8.59097	9.13825	9.422	9.76821	10.1032	10.4403	10.7879	11.0887	11.3537	11.5608	11.6591	11.6749	11.572	11.3232	10.9168	10.3011	9.50443	8.64032	7.81617	6.90527	6.02095	5.1708	4.39831	3.66497	3.01077	2.484	2.1243	1.82474	1.55413	1.32193	1.18342	1.10046	0.985324	0.861854	0.76565	0.65009	0.57876	0.556595	0.545032	0.455954	0.327372	0.169822	0.00814245	-0.143876	-0.317057	-0.523943	-0.748085	-0.993407	-1.2288	-1.19437	-0.987481	-0.736964	-0.488204	-0.226201	-0.131826	-0.0336426	0.0237138	0.0687509	0.0812771	0.0825545	0.0571804	0.0272472	-0.0237973	-0.114257	-0.240035	-0.377568	-0.556027	-0.688804	-0.602229	-0.431424	0.209306	0.644534	0.88543	1.12057	1.29766	1.41236	1.0307	0.903942	0.76328	0.547298	0.370532	0.333166	0.536167	0.538173	0.538431	0.533004	0.555188	0.563078	0.612351	0.321866	0.398242	0.420705	0.478945	0.599074	0.81475	1.04421	1.24238	1.39086	1.45239	1.45229	1.37612	1.24312	1.01672	0.509963	0.237572	0.0541065	0.0120052	0.0102143	0.0322138	0.0905902	0.191049	0.577794	0.291413	0.449847	0.336769	0.155732	-0.094148	-0.535266	-0.688192	-0.54754	-0.0678636	0.0998688	-0.062445	-1.08482	-1.43845	-0.168812	0.167372	0.518563	0.870365	1.22991	1.56716	1.95962	2.39789	2.37573
