Acq. time (s)=	4
Accumulations=	3
Range=	Off
Autofocus=	Off
SWIFT=	Off
AutoExposure=	Off
Spike filter=	Multiple accum.
Delay time (s)=	0
Binning=	1
Readout mode=	Signal
DeNoise=	Standard
ICS correction=	On
Dark correction=	Off
Inst. Process=	On
Instrument=	LabRAM S3000
Detector=	Synapse
Objective=	x100
Grating=	1800
ND Filter=	25%
Laser (nm)=	632.81 
Spectro (cm-¹)=	520.984
Slit=	100.021
Hole=	1000.03
Microscope=	Principal
StageXY=	Märzhauser
StageZ=	Märzhauser
X (µm)=	-20.1
Y (µm)=	-20
Z (µm)=	-1812.1
Project=	
Sample=	
Site=	
Title=	SOP_200nm_SPIS_p0.1_map
Remark=	
Date=	17.06.2019 12:37
Operator=	
Acquired=	17.06.2019 12:37:50
Base:Sub=	17.06.2019 12:39:40
		358.033	358.357	358.684	359.008	359.333	359.659	359.983	360.309	360.634	360.959	361.285	361.609	361.934	362.26	362.584	362.908	363.233	363.559	363.883	364.208	364.533	364.858	365.182	365.507	365.832	366.157	366.481	366.805	367.13	367.455	367.78	368.104	368.428	368.752	369.078	369.402	369.726	370.051	370.375	370.7	371.024	371.348	371.673	371.997	372.321	372.645	372.969	373.294	373.618	373.942	374.266	374.59	374.914	375.238	375.562	375.886	376.21	376.534	376.858	377.182	377.505	377.829	378.153	378.477	378.801	379.124	379.448	379.772	380.096	380.419	380.743	381.067	381.391	381.714	382.038	382.362	382.685	383.009	383.332	383.656	383.98	384.302	384.625	384.949	385.272	385.596	385.919	386.243	386.566	386.888	387.212	387.535	387.859	388.182	388.504	388.827	389.151	389.474	389.797	390.119	390.443	390.766	391.089	391.412	391.734	392.057	392.381	392.704	393.026	393.349	393.672	393.994	394.317	394.64	394.963	395.285	395.608	395.931	396.253	396.576	396.899	397.22	397.543	397.865	398.188	398.511	398.832	399.155	399.478	399.8	400.122	400.444	400.767	401.088	401.411	401.734	402.055	402.378	402.699	403.022	403.344	403.666	403.988	404.31	404.632	404.954	405.276	405.598	405.919	406.242	406.563	406.886	407.207	407.53	407.851	408.173	408.494	408.815	409.138	409.459	409.782	410.103	410.424	410.746	411.067	411.39	411.71	412.031	412.354	412.675	412.996	413.318	413.639	413.96	414.282	414.603	414.924	415.246	415.567	415.888	416.208	416.531	416.851	417.172	417.494	417.815	418.136	418.456	418.779	419.099	419.42	419.741	420.061	420.383	420.704	421.024	421.345	421.665	421.986	422.308	422.629	422.949	423.27	423.59	423.91	424.232	424.553	424.873	425.194	425.514	425.834	426.155	426.475	426.795	427.116	427.436	427.756	428.078	428.398	428.719	429.039	429.359	429.679	430	430.32	430.64	430.96	431.28	431.6	431.921	432.241	432.561	432.881	433.201	433.52	433.84	434.16	434.48	434.8	435.12	435.44	435.76	436.08	436.4	436.719	437.038	437.358	437.678	437.998	438.317	438.637	438.957	439.276	439.595	439.915	440.235	440.555	440.873	441.193	441.512	441.832	442.152	442.47	442.79	443.109	443.429	443.747	444.067	444.387	444.706	445.024	445.344	445.663	445.982	446.301	446.621	446.939	447.258	447.578	447.896	448.215	448.534	448.852	449.172	449.491	449.809	450.129	450.448	450.766	451.085	451.403	451.722	452.042	452.36	452.679	452.997	453.316	453.634	453.953	454.271	454.59	454.908	455.227	455.544	455.863	456.181	456.5	456.818	457.137	457.455	457.774	458.091	458.41	458.728	459.047	459.364	459.683	460.001	460.318	460.637	460.955	461.274	461.591	461.909	462.228	462.545	462.862	463.181	463.499	463.817	464.135	464.452	464.771	465.088	465.405	465.723	466.041	466.359	466.676	466.995	467.312	467.629	467.946	468.265	468.582	468.899	469.216	469.535	469.852	470.169	470.486	470.805	471.122	471.439	471.756	472.073	472.391	472.708	473.025	473.342	473.659	473.976	474.293	474.611	474.928	475.245	475.562	475.879	476.196	476.513	476.83	477.146	477.463	477.781	478.098	478.415	478.732	479.048	479.365	479.682	479.999	480.315	480.632	480.949	481.265	481.582	481.898	482.215	482.532	482.848	483.165	483.481	483.798	484.114	484.429	484.746	485.062	485.379	485.695	486.012	486.328	486.645	486.961	487.277	487.592	487.909	488.225	488.542	488.858	489.174	489.489	489.805	490.122	490.438	490.754	491.07	491.385	491.701	492.018	492.334	492.648	492.965	493.281	493.597	493.912	494.228	494.544	494.86	495.175	495.491	495.807	496.121	496.437	496.753	497.069	497.384	497.7	498.016	498.33	498.646	498.961	499.277	499.592	499.907	500.223	500.539	500.853	501.169	501.483	501.799	502.113	502.429	502.745	503.059	503.375	503.689	504.005	504.319	504.635	504.949	505.265	505.579	505.895	506.209	506.524	506.838	507.154	507.468	507.784	508.098	508.413	508.727	509.042	509.357	509.671	509.987	510.301	510.616	510.93	511.244	511.559	511.873	512.187	512.503	512.816	513.132	513.446	513.76	514.075	514.389	514.703	515.016	515.332	515.645	515.959	516.274	516.588	516.902	517.216	517.531	517.844	518.158	518.472	518.787	519.101	519.414	519.728	520.043	520.357	520.67	520.984	521.297	521.612	521.926	522.239	522.553	522.866	523.18	523.493	523.808	524.122	524.435	524.748	525.062	525.375	525.689	526.002	526.315	526.629	526.943	527.257	527.57	527.883	528.197	528.51	528.823	529.136	529.45	529.763	530.076	530.389	530.703	531.016	531.329	531.642	531.955	532.268	532.581	532.894	533.206	533.519	533.832	534.145	534.458	534.771	535.084	535.397	535.71	536.023	536.335	536.648	536.961	537.273	537.586	537.899	538.212	538.524	538.836	539.149	539.462	539.775	540.086	540.399	540.712	541.025	541.336	541.649	541.961	542.274	542.585	542.898	543.211	543.523	543.835	544.147	544.46	544.771	545.084	545.396	545.709	546.02	546.332	546.645	546.956	547.268	547.58	547.892	548.204	548.516	548.828	549.14	549.451	549.764	550.075	550.387	550.698	551.01	551.323	551.634	551.946	552.257	552.569	552.88	553.192	553.503	553.815	554.126	554.438	554.749	555.061	555.372	555.684	555.995	556.307	556.618	556.928	557.24	557.551	557.863	558.174	558.486	558.797	559.107	559.419	559.73	560.042	560.352	560.663	560.975	561.285	561.596	561.908	562.218	562.529	562.84	563.151	563.461	563.773	564.083	564.394	564.704	565.016	565.326	565.637	565.947	566.259	566.569	566.879	567.19	567.501	567.811	568.122	568.432	568.742	569.054	569.364	569.674	569.984	570.294	570.604	570.915	571.226	571.536	571.846	572.156	572.466	572.776	573.086	573.396	573.708	574.018	574.328	574.638	574.948	575.258	575.568	575.878	576.187	576.497	576.807	577.117	577.427	577.737	578.047	578.356	578.666	578.976	579.286	579.596	579.905	580.215	580.525	580.834	581.144	581.452	581.762	582.072	582.381	582.691	583.001	583.31	583.62	583.93	584.238	584.547	584.857	585.166	585.476	585.785	586.095	586.403	586.712	587.022	587.331	587.641	587.949	588.258	588.568	588.877	589.185	589.494	589.804	590.113	590.421	590.73	591.039	591.347	591.657	591.966	592.275	592.583	592.892	593.201	593.509	593.818	594.128	594.435	594.744	595.052	595.361	595.67	595.978	596.287	596.596	596.904	597.213	597.521	597.83	598.137	598.446	598.755	599.063	599.372	599.679	599.988	600.296	600.605	600.912	601.221	601.528	601.837	602.145	602.453	602.761	603.07	603.377	603.684	603.993	604.301	604.609	604.917	605.225	605.533	605.84	606.149	606.456	606.763	607.072	607.379	607.688	607.995	608.302	608.611	608.918	609.225	609.533	609.841	610.148	610.455	610.763	611.07	611.377	611.686	611.993	612.3	612.607	612.915	613.222	613.529	613.836	614.145	614.452	614.759	615.065	615.372	615.681	615.988	616.294	616.601	616.908	617.215	617.522	617.83	618.137	618.443	618.75	619.057	619.364	619.67	619.977	620.284	620.592	620.899	621.205	621.512	621.819	622.125	622.432	622.738	623.045	623.352	623.658	623.965	624.271	624.578	624.884	625.191	625.497	625.804	626.11	626.417	626.723	627.03	627.336	627.641	627.947	628.254	628.56	628.867	629.173	629.479	629.786	630.092	630.398	630.703	631.009	631.316	631.622	631.928	632.234	632.539	632.845	633.151	633.458	633.764	634.068	634.375	634.681	634.987	635.292	635.598	635.904	636.21	636.514	636.82	637.126	637.432	637.737	638.043	638.349	638.654	638.96	639.265	639.57	639.876	640.182	640.486	640.792	641.097	641.402	641.708	642.013	642.319	642.624	642.929	643.234	643.539	643.845	644.149	644.455	644.759	645.065	645.37	645.675	645.98	646.285	646.59	646.894	647.2	647.504	647.81	648.114	648.42	648.724	649.028	649.333	649.638	649.943	650.247	650.553	650.857	651.161	651.466	651.77	652.076	652.38	652.684	652.989	653.293	653.597	653.902	654.206	654.51	654.815	655.119	655.423	655.729	656.032	656.336	656.641	656.945	657.249	657.553	657.858	658.162	658.466	658.769	659.074	659.378	659.682	659.986	660.289	660.594	660.898	661.202	661.505	661.809	662.114	662.418	662.721	663.025	663.328	663.632	663.935	664.239	664.544	664.847	665.151	665.454	665.758	666.061	666.365	666.668	666.972	667.275	667.578	667.882	668.185	668.489	668.792	669.095	669.398	669.702	670.005	670.308	670.612	670.915	671.218	671.521	671.825	672.128	672.431	672.734	673.037	673.341	673.644	673.947	674.249	674.552	674.855	675.158	675.461	675.764	676.067	676.369	676.672	676.975	677.278	677.581	677.884	678.185	678.488	678.791	679.094
-20	-20.0732	46.2162	45.4479	45.4033	45.4139	44.7952	44.2888	43.4958	42.0878	40.4195	38.5748	36.3633	34.6506	32.8324	31.1498	30.1019	28.9919	28.4128	27.6688	26.924	25.9499	24.9311	23.499	22.4998	21.5872	20.5817	19.5132	18.409	17.2737	16.0224	14.8172	13.6974	12.743	11.8805	11.1085	10.4124	9.82066	9.39639	8.99093	8.55259	8.05618	7.52754	6.97829	6.3476	5.70201	5.03238	4.35421	3.68694	3.07907	2.48373	1.91446	1.40939	1.02886	0.770181	0.536889	0.374586	0.217973	0.113767	-0.12979	-0.129548	-0.0462919	0.104379	0.286514	0.480693	0.699009	0.901794	1.1039	1.20291	0.879581	0.302554	-0.254524	-1.06692	-1.30958	-1.41114	-1.42481	-1.00142	-0.736054	-0.511901	-0.343855	-0.25306	-0.219875	-0.157298	-0.110032	-0.0219736	0.0378527	0.0857995	0.14555	0.233333	0.647443	0.652138	0.526878	0.357875	0.257634	0.233377	0.272862	0.373567	0.505545	0.683749	0.934512	1.192	1.46453	1.68284	1.87864	2.01557	2.19411	2.4975	2.82493	3.07825	3.22746	3.31676	3.35157	3.35011	3.31774	3.26122	3.1797	3.12018	3.01111	2.89271	2.75374	2.5434	2.34217	2.18239	2.15285	2.19972	2.41207	2.64271	2.93039	3.27928	3.72757	4.17189	4.59315	4.96404	5.32375	5.62459	5.91631	6.16986	6.40726	7.07679	7.31479	7.46144	7.5431	7.22497	7.18222	7.18318	7.20678	7.28788	7.63564	7.98212	8.20327	8.36553	8.47219	8.52205	8.52857	8.49999	8.39467	8.35842	8.3797	8.54757	8.77825	9.12627	9.58465	10.1753	10.8979	11.7398	12.675	13.7786	14.837	15.8653	16.7885	17.5958	18.2127	18.6319	18.9186	19.0766	19.1516	19.0922	18.9579	18.7052	18.3677	17.976	17.55	17.2197	16.8539	16.639	16.4996	16.4474	16.2665	16.1036	15.8855	15.7707	15.6857	15.6996	15.8459	15.883	15.8224	15.769	15.7615	15.8061	15.8497	16.0105	16.0879	16.1119	16.1028	16.0327	15.9134	15.7677	15.544	15.2961	15.0542	14.7949	14.5318	14.3066	14.1833	14.0842	13.9893	13.8929	13.7903	13.6782	13.5763	13.4132	13.2349	13.0238	12.7898	12.5232	12.2732	12.0241	11.7881	11.5891	11.4891	11.2914	11.0524	10.7994	10.5353	10.3065	10.0422	9.77675	9.51072	9.2668	8.97272	8.6839	8.41047	8.16727	7.92389	7.75948	7.66397	7.59222	7.58216	7.63776	7.71743	7.8414	7.86701	7.7198	7.47678	7.23483	7.01451	6.81387	6.65985	6.58176	6.58787	6.61937	6.68008	6.75397	6.72126	6.64224	6.00837	5.7959	5.52763	5.23154	4.92106	4.56655	4.14331	3.72507	3.33431	3.01042	2.80377	2.71392	2.68185	2.80951	2.95792	3.09933	3.21373	3.22819	3.20029	3.10334	2.92701	2.68719	2.43385	2.10943	1.78948	1.47002	1.31727	1.20479	1.1523	1.13499	1.14982	1.17025	1.18807	1.25149	1.32624	1.38954	1.35789	1.30343	1.10776	0.869383	0.43245	-0.0733518	-0.443277	-0.77582	-1.03191	-1.23236	-1.30691	-1.41012	-1.46937	-1.4496	-1.37498	-1.20454	-0.928318	-0.61061	-0.301242	-0.0135714	0.309373	0.605887	0.882347	1.07344	1.19792	1.25018	1.231	1.20426	1.1735	1.03624	0.904553	0.850086	0.855683	0.916984	1.09666	1.31886	1.55364	1.8003	2.02869	2.25509	2.50019	2.77883	3.03255	3.26787	3.44495	3.57834	3.62402	3.60904	3.5381	3.40946	3.32454	3.60091	3.37486	5.64482	6.18109	6.57304	6.61208	7.06438	7.50338	8.55064	9.479	10.4327	11.4442	12.5202	13.6227	14.7522	15.7533	16.7001	17.6188	18.3898	19.2305	20.1927	21.3013	22.5217	23.8249	25.0449	26.305	27.6541	29.1019	30.6827	32.3538	34.1389	35.938	37.6098	39.1461	40.5405	41.8691	43.1598	44.4439	45.8378	47.2681	48.7146	50.1381	51.5423	52.9609	54.2615	55.5449	56.7924	57.9626	59.0486	60.0325	60.8704	61.6088	62.2206	62.7373	63.1865	63.563	63.8485	64.0699	64.0195	63.6743	63.1777	62.5508	61.8829	61.2649	60.5878	59.9553	59.4911	59.02	58.5885	58.0075	57.319	56.5307	55.6551	54.6775	53.6138	52.3705	51.0075	49.5889	48.1266	46.747	45.3701	44.0515	42.8614	41.8787	41.0106	40.2122	39.4393	38.6544	37.7971	36.9144	36.0441	35.1808	34.3019	33.4149	32.4129	31.3141	30.1496	29.2072	28.3503	27.5163	26.6719	25.7137	24.4327	23.3166	22.2491	21.2582	20.2899	19.3992	18.5042	17.5883	16.7614	16.0057	15.311	14.7394	14.3201	13.939	13.6699	13.4703	13.3003	13.2265	13.2912	13.0628	13.3825	13.8129	14.0952	14.4084	15.167	16.1238	17.1946	18.4621	19.4835	20.4769	21.0866	21.1989	21.195	20.3633	20.0891	20.0411	20.1716	20.931	22.0176	24.3322	27.0514	30.9037	36.877	43.4436	51.1138	51.7558	70.7653	83.9906	102.94	125.049	154.347	178.808	205.475	210.682	201.596	180.386	151.476	123.377	96.519	74.7442	58.8401	47.7376	39.6998	34.1409	30.4527	26.4397	23.1913	21.1367	18.9072	14.6763	12.3203	11.217	9.73701	8.42583	7.32098	6.42001	5.65301	5.2124	4.8665	4.60798	4.40452	4.23023	4.00105	3.80742	3.62111	3.46932	3.34652	3.25528	3.14914	3.05009	2.97315	2.90581	2.86687	2.84838	2.82878	2.7822	2.65633	2.43389	2.13234	1.70407	1.2518	0.820159	0.418445	0.182086	-0.00362444	-0.109266	-0.131592	-0.0893483	-0.017976	0.0738814	0.196053	0.281005	0.336119	0.218802	0.0234089	-0.205253	-0.62538	-0.674171	-0.905747	-0.64445	-0.242892	-0.000873276	0.235337	0.327331	0.362623	0.600287	0.947093	1.22583	1.13283	1.03901	1.013	0.933288	0.71181	0.300907	0.0951639	-0.173611	-0.392899	-0.422983	-0.409015	-0.310796	-0.172414	-0.00176415	0.20896	0.426003	0.598002	0.605099	0.45738	0.183802	-0.157485	-0.459542	-0.636445	-0.775219	-0.870689	-0.917702	-0.887306	-0.809704	-0.673148	-0.498391	-0.285584	-0.0628607	0.146772	0.317072	0.33991	0.278047	0.119851	-0.0396206	-0.190665	-0.26981	-0.319846	-0.344546	-0.316184	-0.209529	-0.0698755	0.113695	0.331762	0.573026	0.830492	1.15787	1.48014	1.74467	1.63149	1.4984	1.32039	1.15218	0.987217	0.817386	0.653931	0.52035	0.46126	0.445142	0.495451	0.572985	0.5013	0.364689	0.256039	0.14372	0.0669086	0.0141797	-0.043115	-0.0788909	-0.0868183	-0.0526083	0.00701397	0.15952	0.357259	0.570171	0.80223	1.03827	1.27316	1.50184	1.68343	1.6526	1.49605	1.27413	0.935387	0.633256	0.355	0.140477	0.014526	-0.0947373	-0.14501	-0.154106	-0.126837	-0.0104166	0.137621	0.279591	0.395023	0.243316	0.0628596	-0.318119	-0.533239	-0.645755	-0.708946	-0.704496	-0.656707	-0.591555	-0.49937	-0.395264	-0.248509	-0.118876	0.0794792	0.26001	0.463076	0.662671	0.72081	0.620861	0.502287	0.38536	0.292676	0.226008	0.219902	0.257967	0.33347	0.442905	0.620778	0.838888	1.06344	1.26803	1.44714	1.4904	1.45811	1.30033	1.08485	0.778419	0.434622	0.115023	-0.154132	-0.365943	-0.530917	-0.726752	-0.925142	-1.07519	-1.15783	-1.16065	-1.11631	-1.01985	-0.93226	-0.942652	-0.911927	-0.834427	-0.699287	-0.40343	0.0626235	0.614626	1.08987	1.37765	1.64124	1.87862	2.03855	2.10431	2.1145	2.06337	1.9683	1.81932	1.49718	1.13365	0.739274	0.434933	0.247518	0.139242	0.0452265	0.0515647	0.0494577	0.0529622	0.0998266	0.232356	0.437246	0.80677	1.21721	1.63837	1.89844	2.10734	2.25037	2.33606	2.35749	2.33116	2.26536	2.17906	2.04987	1.89974	1.64483	1.36033	1.10731	1.05328	1.17857	1.42707	1.76609	2.23735	2.72246	3.16766	3.45116	3.65187	3.7123	3.57271	3.34528	3.06259	2.75577	1.41816	1.52405	1.65127	1.86872	2.12577	2.38052	2.60514	2.80318	2.96217	3.06945	3.09772	3.06391	3.00519	2.91666	2.79555	2.80954	3.08327	3.35878	3.63415	3.85616	4.11618	4.32198	4.51316	4.65329	4.71329	4.73784	4.83032	4.98201	5.16909	5.3243	5.5013	5.74386	6.13581	6.55532	7.02525	7.48456	8.05997	8.62661	9.26777	9.97308	10.6598	11.3309	11.9599	12.519	13.0131	13.4744	13.9085	14.2904	14.6533	15.0262	15.4195	15.8135	16.2952	16.8339	17.4158	18.0733	18.7438	19.478	20.2506	21.0391	21.804	22.5349	23.2769	23.9892	24.6606	25.2244	25.7041	25.986	26.1926	26.3042	26.291	26.1468	25.9731	25.7536	25.5674	25.5175	25.3183	25.6245	26.1109	26.7969	27.5791	28.3957	29.2565	30.1291	30.7123	31.3142	31.5733	31.1863	30.3105	28.8926	26.9915	24.724	22.5573	20.6215	18.7698	17.5366	15.8452	14.7482	14.0131	13.7167	13.7063	14.1763	14.8067	15.412	15.9515	16.5557	16.9936	17.2522	17.306	17.2006	16.9885	16.7031	16.3059	15.8038	15.2059	14.4252	13.5238	12.5398	11.5372	10.5334	9.63646	8.79074	8.01045	7.2768	6.58756	5.97227	5.34257	4.72811	4.12319	3.52006	2.94641	2.41036	1.7997	1.24138	0.726058	0.277112	-0.093631	-0.291333	-0.436846	-0.552765	-0.651393	-0.727462	-0.761179	-0.746283	-0.753532	-0.727431	-0.702505	-0.593629	-0.46572	-0.293689	-0.1108	0.136956	0.412755	0.71814	0.982335	1.24095	1.4204	1.5707	1.71116	1.78127	1.8128	1.79436	1.84292	1.89687	1.94088	1.87595	1.83345	1.78735	1.73243	1.80738	1.88362	1.95884	1.98758	1.93419	1.8274	1.67862	1.4968	1.29695	1.08834	0.907717	0.698688	0.477035	0.348802	0.263948	0.263273	0.408954	0.608559	0.838046	1.07704	1.26595	1.39491	1.47608	1.45233	1.37841	1.08429	0.71093	0.456195	0.557098	0.700906	0.446175	0.21509	0.0754343	-0.00465015	-0.0207262	0.0094324	0.0628511	0.162943	0.228282	-0.234603	-0.38488	-0.368957	-0.321518	-0.256515	-0.243692	-0.250829	-0.289685	-0.333055	-0.369238	-0.44115	-0.488556	-0.483151	-0.410791	-0.25986	-0.030247	0.294634	0.704558	0.917713	1.15343	1.46387	1.9531	2.58978	3.359	4.28351	5.37112	6.67716
-20	-0.0366178	65.5228	63.6829	61.8343	60.0204	58.1357	56.2244	54.3266	52.4259	50.6336	48.903	47.1485	45.4264	43.7412	42.0859	40.4846	38.918	37.391	35.9407	34.5605	33.2307	31.9306	30.6718	29.4443	28.2417	27.0505	25.8813	24.6888	23.5174	22.3685	21.2079	20.0848	18.9111	17.7375	16.5903	15.4834	14.4101	13.4585	12.5567	11.6965	10.8688	10.1292	9.43787	8.7721	8.13405	7.52602	6.92825	6.39458	5.80638	5.23869	4.70193	4.14874	3.6146	3.14763	2.71181	2.29744	1.89179	1.64207	1.34119	0.945325	0.555371	0.215312	-0.0840401	-0.318997	-0.475499	-0.548124	-0.564375	-0.506385	-0.37977	-0.173223	0.0841467	0.46776	0.566884	0.625645	0.668499	0.598102	0.514729	0.390296	0.269073	0.127954	-0.040363	-0.165646	-0.249314	-0.299717	-0.334406	-0.326757	-0.239994	-0.157852	-0.0619051	-0.0581843	-0.0832992	-0.150057	-0.201603	-0.253531	-0.252951	-0.234276	-0.144573	0.00732434	0.168508	0.33243	0.513597	0.688061	0.844193	1.02068	1.14359	1.27624	1.39163	1.47736	1.47099	1.46919	1.42505	1.35702	1.2395	1.29066	1.4099	1.5791	1.76416	1.9545	2.15818	2.37974	2.58925	2.7865	2.96765	3.07357	3.1613	2.93912	2.90924	2.92899	2.99539	3.00982	3.02145	3.09111	3.19298	3.43093	3.7472	4.14877	4.5441	4.92371	5.27611	5.58503	5.85269	6.00061	6.08629	6.09502	6.05306	5.9915	5.93769	5.86979	5.85293	5.88638	6.05097	6.34559	6.74635	7.21674	7.66113	8.14593	8.64934	9.09272	9.49557	9.84775	10.2108	10.5922	11.0112	11.5227	12.0671	12.6573	13.281	13.89	14.61	15.3431	16.0176	16.6336	17.1145	17.4075	17.5398	17.536	17.4013	17.1897	16.9322	16.6658	16.379	16.1037	15.8202	15.545	15.2651	15.0122	14.8393	14.7573	14.7494	14.771	14.8354	14.9328	15.0166	15.0826	15.1897	15.3612	15.5137	15.6441	15.653	15.6574	15.6262	15.5084	15.3682	15.21	15.0308	14.8624	14.6617	14.467	14.2792	14.1301	14.0226	14.0515	14.0915	14.1343	14.1537	14.1791	14.0841	13.8974	13.6765	13.4403	13.2083	12.9872	12.8463	12.6621	12.4686	12.2871	12.0843	11.8683	11.6323	11.4495	11.3396	11.1584	10.9289	10.6482	10.3397	10.0063	9.68657	9.39148	9.15261	8.90052	8.66284	8.43757	8.18794	7.94574	7.7235	7.51559	7.32339	7.14094	6.98988	6.94397	6.88343	6.8259	6.79967	6.73569	6.63906	6.518	6.36242	6.06403	5.83652	5.74077	5.65892	5.61617	5.57163	5.53801	5.40537	5.31149	5.1727	5.0253	4.87041	4.66082	4.52828	4.29853	4.06324	3.8413	3.65979	3.59063	3.71662	4.04963	4.20887	4.33063	4.37532	4.33337	4.12796	3.8549	3.5401	3.17415	2.49993	2.08987	1.67511	1.28291	0.943793	0.711625	0.496653	0.309553	0.0914106	-0.116971	-0.18531	-0.0861832	0.0984826	0.35776	0.663794	1.34713	1.1857	1.00177	0.778223	0.541701	0.274989	0.0627372	-0.235129	-0.499164	-0.67197	-0.688062	-0.548187	-0.400374	-0.328365	-0.181516	-0.0724938	-0.00927267	-0.001333	-0.164515	-0.679542	-0.631887	-0.555431	-0.397998	-0.177826	0.0534567	0.292527	0.548484	0.789009	1.01196	1.2461	1.76628	2.0219	2.2177	2.37423	2.51945	2.6356	2.77747	2.90384	3.00435	3.09278	3.21221	3.33704	3.48823	3.73457	4.0879	4.25321	4.34107	4.47558	4.67185	4.96038	5.38188	5.91402	6.50583	7.20149	7.94314	8.71948	9.30438	9.89439	10.5154	11.1493	11.8233	12.3502	12.8599	13.4228	14.0533	14.7486	15.6094	16.5365	17.5343	18.609	19.7581	20.9733	22.302	23.759	26.0623	27.6896	29.2813	30.8198	32.3054	33.7074	35.013	36.2688	37.4708	38.6118	39.7716	41.2817	42.8641	44.5295	46.272	48.0478	49.8467	51.5957	53.2413	54.7788	56.067	57.1613	57.4359	58.2685	59.0855	59.7186	60.2609	60.7558	61.2129	61.4994	61.8821	62.3026	62.6437	62.9379	63.0603	63.0018	62.6308	61.974	61.1386	60.2792	59.425	58.6715	58.011	57.4398	56.989	56.5373	56.1004	55.6434	55.4068	54.8484	54.1056	53.1655	52.0771	50.8166	49.4234	47.8735	46.252	44.6141	43.1077	41.7672	40.5051	39.4227	38.4485	37.5458	36.5841	35.6175	34.5991	33.5463	32.4856	31.3306	30.1519	29.1309	28.1409	27.2338	26.3899	25.5825	24.7085	23.8907	23.1074	22.3622	21.6247	20.917	20.1909	19.4786	18.7914	18.1473	17.533	16.9392	16.3795	15.8314	15.3121	14.7957	14.3311	13.9144	13.5924	13.36	13.2819	13.3894	13.654	14.0186	14.4945	15.0799	15.7909	16.5748	17.4413	18.3065	18.9876	19.7235	20.3405	20.87	21.2398	22.3885	22.6485	22.7718	23.1771	23.4787	24.5424	25.776	27.5796	30.5555	35.5354	41.3793	48.5398	57.5793	69.7155	84.2201	105.56	128.271	157.099	184.199	203.34	212.717	206.579	184.267	150.537	121.896	100.006	81.3244	64.4251	48.013	39.8549	34.3305	29.2559	25.4104	21.6209	18.6116	16.5752	14.9779	13.6635	11.9658	11.1256	10.0892	9.0711	8.10286	7.1377	6.29499	5.52997	4.94207	4.48357	4.11364	3.7717	3.27858	3.08293	3.12614	3.23305	3.32648	3.28715	3.08079	2.83229	2.4958	2.13696	1.81183	1.45986	1.1138	0.783827	0.455465	0.219093	0.0955007	0.407864	0.676298	0.660094	0.631633	0.613173	0.614739	0.61439	0.614773	0.652896	0.717693	0.784647	0.849348	0.919752	0.989429	0.966666	0.862491	0.768604	0.685309	0.590013	0.47759	0.355826	0.180297	-0.0439431	-0.310321	-0.581672	-0.831467	-1.04256	-1.20943	-1.30821	-1.37981	-1.43731	-1.4492	-1.45228	-1.43525	-1.45015	-1.31707	-1.14207	-0.937074	-0.680314	-0.364689	-0.0495268	0.236786	0.452348	0.63859	0.799761	0.903572	0.946657	0.889674	0.703913	0.507981	0.287336	0.143513	0.0164977	-0.0642095	-0.106466	-0.124998	-0.101828	-0.0543809	-0.0184383	0.0364566	0.0458315	-0.019482	-0.0455601	-0.0483818	-0.026186	0.0499911	0.156107	0.279618	0.426861	0.597921	0.783254	0.953116	1.12376	1.1669	1.33271	1.3722	1.29638	1.10173	0.657423	0.212679	-0.0371964	-0.188141	-0.165189	-0.0694159	0.0934281	0.34317	0.601244	0.852763	1.10093	1.33926	1.61539	1.83609	1.97403	1.79799	1.82628	1.8134	1.79975	1.77278	1.75074	1.73473	1.7173	1.69781	1.65272	1.5828	1.50476	1.41856	1.33277	1.24563	1.14583	1.08966	1.04492	1.03916	1.01711	0.984269	0.98297	0.919551	0.82673	0.724835	0.578918	0.376205	0.136275	-0.102402	-0.270945	-0.32526	-0.233105	-0.0288836	0.224331	0.515024	0.810083	1.05148	1.23797	1.37493	1.44765	1.43628	1.06908	0.994015	0.973648	1.05211	1.14116	1.23893	1.33869	1.41155	1.49372	1.54065	1.6115	1.69784	1.60953	1.49561	1.32016	1.13635	0.985526	0.791496	0.570396	0.349163	0.137703	-0.07291	-0.243774	-0.372507	-0.414072	-0.491337	-0.564248	-0.595242	-0.602653	-0.60406	-0.551979	-0.498933	-0.387101	-0.276471	-0.162666	-0.0635517	0.00534062	-0.018417	-0.138853	-0.286366	-0.439901	-0.597161	-0.745113	-0.847637	-0.930691	-0.990715	-1.07938	-1.13017	-1.09337	-0.947659	-0.459241	-0.232224	-0.00985791	0.188629	0.27481	0.23686	0.214762	0.422116	0.643609	0.879024	1.0894	1.25014	1.43201	1.63193	1.78349	1.87534	1.92241	1.83227	1.74512	1.33266	1.1933	1.10279	1.04139	1.01973	1.03478	1.0378	1.10756	1.2518	1.45636	1.69236	2.01805	2.33449	2.64136	2.92439	3.06981	3.10936	3.11692	3.07443	2.982	2.88113	2.6876	2.47515	2.3166	2.21482	2.23949	2.293	2.39577	2.5255	2.69392	2.90052	3.09895	3.25622	3.3599	3.40974	3.37167	3.24955	3.09826	2.91976	2.74573	2.60384	2.46893	2.3547	2.32455	2.2818	2.27108	2.29488	2.3784	2.52445	2.71133	2.93993	3.15716	3.38337	3.69279	3.97278	4.26439	4.50916	4.78986	5.12476	5.49378	5.8826	6.22753	6.54652	6.82036	7.06926	7.35573	7.81784	8.61688	9.3475	10.0145	10.5252	10.9167	11.1723	11.2984	11.1917	11.1345	11.2582	11.6217	12.094	12.8134	14.4963	14.7175	14.9635	15.3151	15.4157	15.3082	15.4185	15.8411	16.6314	17.8567	18.9306	19.6854	20.54	21.1031	21.5599	21.6447	21.921	21.3034	19.4948	19.5529	21.5975	23.3554	24.4496	25.5197	27.1043	26.7188	26.4782	25.865	25.6171	24.8278	24.7498	24.6267	24.8203	25.695	26.3323	27.2858	28.1758	29.4661	29.9994	30.9198	31.5048	31.7131	30.5561	28.8922	26.9222	24.8895	22.2949	20.247	18.2317	16.5837	15.2381	14.3741	13.8199	13.555	13.5714	13.8408	14.2565	14.7267	15.3081	15.9724	16.7234	17.3038	17.6068	17.7314	17.5885	17.1831	16.9034	16.474	15.864	14.9969	13.9721	12.6425	11.2487	9.79601	8.42957	7.14777	5.96959	4.95305	4.05876	3.27361	2.61151	2.05209	1.57895	1.22375	0.934085	0.692181	0.491283	0.283169	0.120935	-0.0148657	-0.107763	-0.204504	-0.315077	-0.339861	-0.349487	-0.343602	-0.295499	-0.318458	-0.341651	-0.36934	-0.43615	-0.480344	-0.491694	-0.410688	-0.285523	-0.126142	0.00548639	0.19132	0.366699	0.518021	0.592363	0.548281	0.462559	0.339971	0.203459	0.126543	0.12525	-0.0189713	-0.123851	-0.102841	-0.019357	0.184196	0.504986	0.77121	1.0647	1.25345	1.45938	1.6559	1.8605	2.05108	2.16228	2.25951	2.25561	2.11369	1.97373	1.83863	1.78061	1.83849	1.91827	2.05966	2.14809	2.33273	2.50795	2.6505	2.74569	2.72216	2.63837	2.43879	2.14191	1.82971	1.60868	1.39041	1.07819	0.755626	0.451305	0.333965	0.130465	-0.0572923	-0.307404	-0.452809	-0.380316	-0.397373	-0.440473	-0.543598	-0.739298	-0.749378	-0.630521	-0.38951	-0.133024	0.102455	0.233997	0.309623	0.384147	0.455629	0.552521	0.69645	0.873646	1.06862	1.09367	1.46375	1.93329	2.43881	3.00697	3.61448	4.32771	5.3458	6.68566	7.86227	9.17504
-20	20	59.462	57.7484	55.56	53.4099	51.2123	48.756	46.7805	44.9196	43.1595	41.4952	39.9151	38.4874	37.1879	35.9678	34.7645	33.5741	32.3963	31.231	30.0563	28.8804	27.6961	26.4825	25.2448	24.1555	23.1594	22.1916	21.2471	20.3135	19.3769	18.4607	17.8129	17.072	16.3088	15.5258	14.7314	13.9315	13.1138	12.256	11.3637	10.6968	9.9063	9.31359	8.81349	8.22497	7.54705	6.72605	5.85798	5.10203	4.59403	4.31924	4.22136	4.24974	4.3159	4.37664	4.48752	4.00167	2.61253	2.6908	2.21059	1.8448	1.56622	1.36083	1.16054	0.773034	0.418268	-0.0313507	-0.268151	-0.4394	-0.510989	-0.167172	-0.239258	-0.351728	-0.431995	-0.506116	-0.558701	-0.573904	-0.680511	-0.495031	-0.2592	0.00660557	0.207797	0.30045	0.365446	0.362545	0.507178	0.583105	0.607491	0.572856	0.469633	0.308476	0.0561654	-0.132881	-0.271648	-0.335811	-0.336221	-0.27326	-0.137272	0.0396904	0.257658	0.463791	0.670809	0.886606	1.19629	1.51792	1.79525	2.02418	2.13494	2.32429	2.55288	2.79075	3.02407	3.17262	3.35445	3.39803	3.37908	3.35797	3.31184	3.27011	3.28472	3.25031	3.22958	3.17133	3.10589	3.05623	3.04236	3.05005	3.08339	3.1472	3.25197	3.40638	3.60177	3.83237	4.10089	4.42667	4.72954	4.95924	5.13357	5.2797	5.37464	5.44197	5.50492	5.5807	5.79377	6.04103	6.30084	6.54637	6.80027	7.07531	7.40054	7.78979	8.2122	8.45543	8.64436	8.57378	8.39475	8.20077	8.21381	8.41799	8.74056	9.03399	9.39595	9.82444	10.7285	11.6057	12.8531	13.7882	14.4612	15.2	15.7302	16.2025	16.6031	16.328	16.49	16.6604	17.1476	17.3392	17.7815	17.7848	17.7154	17.602	17.6641	17.4831	17.2636	17.0278	16.7373	16.4187	16.0483	15.6548	15.2121	14.8177	14.5659	14.3186	14.0467	13.7726	13.5191	13.296	13.1562	13.068	13.0024	12.964	13.0307	13.1437	13.2409	13.2362	13.2868	13.3452	13.2712	13.1398	12.9978	12.9519	12.8048	12.6013	12.4441	12.3163	12.2432	12.2377	12.3057	12.3854	12.4719	12.4409	12.4045	12.332	12.2344	12.0597	11.8602	11.6405	11.3801	11.1516	10.9171	10.6888	10.4542	10.1901	9.84846	9.64789	9.49293	9.36896	9.35636	9.40357	9.35047	9.20191	9.02583	8.77078	8.51599	8.26357	7.99301	7.77883	7.59245	7.43156	7.19553	6.89624	6.62481	6.4091	6.21375	6.05344	5.8932	5.78104	5.75156	5.96202	6.00275	5.88616	5.71803	5.52197	5.31694	5.07517	4.85007	4.55673	4.26044	3.90365	3.57295	3.34034	3.22106	3.17949	3.20863	3.32544	3.48434	3.70446	3.91123	4.09419	4.21369	4.38267	4.45217	4.42563	4.28846	4.12484	3.8974	3.63942	3.30847	3.02011	2.71474	2.51491	2.16091	1.82808	1.45599	1.11921	0.84989	0.635658	0.476865	0.370349	0.276684	0.142923	-0.0150773	-0.149244	-0.247567	-0.250584	-0.151016	-0.0438788	0.00103432	-0.0148715	-0.0821433	-0.0925794	-0.113852	-0.169138	-0.293683	-0.482524	-0.560236	-0.635324	-0.752315	-0.784457	-0.757377	-0.654708	-0.484723	-0.15592	0.146938	0.707318	0.955732	1.1074	1.25978	1.65222	2.15683	2.57713	2.61566	2.42201	2.06351	1.69285	0.760007	0.468549	0.626115	0.917572	1.26935	1.73159	2.0422	2.48643	2.8812	3.36557	3.86759	4.36158	4.8851	5.31612	5.71297	6.10862	6.48156	6.90797	7.16147	7.4146	7.5307	8.07775	8.70346	9.39108	10.1167	10.7839	11.3991	12.0446	12.7665	13.5866	14.5002	15.2742	16.0125	16.9512	18.0165	19.3471	20.5942	21.9607	23.4348	24.9441	26.4606	28.0402	29.6718	31.3146	32.982	34.4129	35.8564	37.1631	38.382	39.5862	40.7022	41.8476	43.1689	44.7255	46.3015	48.1827	50.1775	52.1592	53.9897	55.6758	57.2	58.668	59.9044	60.8574	61.5791	62.1643	62.6916	62.9778	63.2273	63.3107	63.347	63.6376	63.8171	63.9025	63.9576	64.027	64.1812	64.2501	64.6074	64.2631	63.047	62.239	61.6642	60.9725	60.2663	59.5956	58.7348	57.641	56.354	54.5152	53.0698	51.8216	51.2338	50.1514	49.083	48.2049	47.1431	46.1152	44.8914	43.4595	42.1226	41.0545	40.0096	39.0088	37.988	36.9878	36.0412	35.1272	34.1693	33.0832	32.1139	31.1697	30.2111	29.1525	28.0427	26.8821	25.7366	24.7526	23.6534	22.5743	21.6472	20.6581	19.8729	19.2231	18.6598	18.1696	17.6682	17.1374	16.6141	16.1981	15.8412	15.5606	15.3922	15.2379	15.1658	15.1387	15.1749	15.294	15.3622	15.4972	15.6919	16.0377	17.1981	17.9064	18.3128	18.7964	19.0433	19.5269	19.5584	19.9942	20.039	20.4612	20.7775	21.5488	22.5246	23.1255	24.3249	25.9647	28.2768	31.5617	36.108	41.7261	48.3507	57.0877	69.0718	84.2217	108.408	128.756	152.549	188.995	210.151	208.226	210.854	176.844	156.666	124.09	96.5409	76.6136	64.6119	52.4401	43.032	31.5965	26.2515	22.685	20.1274	18.0991	15.3826	13.3036	12.0284	10.778	9.62358	8.8942	7.79512	6.93256	5.7239	5.03869	4.52378	4.11849	3.83182	3.61187	3.42208	3.2597	3.14312	3.02315	2.95018	2.90555	2.8421	2.79821	2.75221	2.411	2.23861	2.16644	2.11873	2.05186	2.00892	1.92593	1.83002	1.70965	1.56774	1.4046	1.19508	0.98906	0.699605	0.368536	0.0826556	-0.126816	-0.343189	-0.514111	-0.590249	-0.599746	-0.579197	-0.447919	-0.282293	-0.0848225	0.108987	0.34203	0.599426	0.788404	0.94649	1.06767	1.16928	1.23337	1.287	1.28262	1.09284	0.886648	0.70856	0.451588	0.208881	-0.0108373	-0.270958	-0.527811	-0.749118	-0.997447	-1.12879	-1.16543	-1.13335	-1.05638	-0.910324	-0.697825	-0.468138	-0.262067	-0.0930172	0.0934262	0.162877	0.339982	0.478507	0.451979	0.464067	0.463747	0.451428	0.416688	0.316855	0.274902	0.286557	0.309294	0.287042	0.204333	0.115296	0.0803422	0.19198	0.300785	0.442698	0.593377	0.748075	0.885025	1.00157	1.06768	1.00046	0.854029	0.460761	0.258173	0.0881429	0.0650605	-0.0124098	-0.163373	-0.334874	-0.486186	-0.56579	-0.526428	-0.395964	-0.140514	0.0626108	0.268806	0.560778	0.844158	1.12826	1.36129	1.46177	1.44833	1.32665	1.12787	0.872761	0.623537	0.447575	0.178496	-0.0186475	-0.162311	-0.238356	-0.265709	-0.23294	-0.142229	-0.00504369	0.233571	0.559901	0.868963	1.17463	1.37311	1.50382	1.57512	1.64403	1.62356	1.5218	1.479	1.28411	1.10557	0.91979	0.712436	0.397765	0.149435	-0.023767	-0.140404	-0.17307	-0.191015	-0.120965	-0.124461	-0.148467	-0.172074	-0.179372	-0.142143	-0.0867261	-0.0210662	0.049297	0.164483	0.322513	0.555499	0.810663	1.08855	1.30737	1.47497	1.55233	1.63712	1.66769	1.71915	1.76467	1.69562	1.52337	1.36689	1.25995	1.1672	1.02674	0.884674	0.765346	0.676173	0.687356	0.671137	0.619912	0.428817	0.155286	-0.051322	-0.288461	-0.464732	-0.657395	-0.818319	-0.949401	-1.04787	-1.06715	-1.07286	-1.05557	-1.0468	-1.01788	-0.978191	-0.920731	-0.851379	-0.75532	-0.645822	-0.50838	-0.358062	-0.176943	0.00666096	0.233452	0.50427	0.788455	1.0522	1.30289	1.52654	1.67691	1.72257	1.74989	1.7578	1.76347	1.78027	1.78767	1.80425	1.84181	1.90913	2.01517	2.12487	2.03915	2.00698	2.03073	2.06006	2.08752	2.12564	2.15846	2.21896	2.29892	2.43542	2.64681	2.94204	3.2943	3.58661	3.97041	3.87701	3.73429	3.48837	3.01327	2.66691	2.23049	2.16074	2.17814	2.4262	3.53327	3.85497	3.91658	3.88254	3.92809	3.98236	4.11642	4.65471	4.33956	4.16647	3.98773	3.78815	3.64926	3.55708	3.47177	3.44267	3.49403	3.57704	3.68164	3.92033	4.22543	4.57849	4.85099	5.07962	5.37398	5.63267	5.79443	5.83809	5.84881	5.85094	5.84424	5.85599	5.83455	5.86483	5.92176	6.11336	6.32171	6.54328	6.64842	6.98995	7.30845	7.75484	8.17033	8.55596	8.89164	9.25378	9.60212	9.93458	10.2117	10.4465	10.5815	10.9175	11.3359	11.876	12.3299	12.7465	13.1523	13.5907	14.0232	14.4733	14.9506	15.448	15.9778	16.5369	17.1185	17.7248	18.368	19.0594	19.7657	20.4185	21.0178	21.6344	22.267	22.9209	23.5989	24.3205	25.0297	25.7222	26.1975	26.622	26.9583	27.1876	27.0121	27.2143	27.4267	27.6516	27.8814	27.9503	27.6015	27.6439	27.8299	28.2335	28.787	29.469	30.141	30.7801	31.1544	31.5401	31.7931	31.8481	31.4058	30.5577	29.1624	27.2951	25.2676	22.9484	20.8442	18.8607	17.0622	15.5176	14.4153	13.721	14.782	14.6773	14.6555	14.8365	15.1508	15.6008	16.1455	16.6867	17.3103	17.8664	18.288	18.3827	18.0828	17.5555	16.9424	16.1369	15.0787	13.9917	12.8428	11.6064	10.2974	9.00458	7.76078	6.62316	5.61033	4.66985	3.85208	3.17692	2.67446	2.23754	1.84653	1.45139	1.10602	0.865844	0.709364	0.641996	0.551533	0.480411	0.342018	0.185199	0.029127	-0.180638	-0.3825	-0.611338	-0.822955	-1.00044	-0.947387	-0.807584	-0.69077	-0.564363	-0.441292	-0.317277	-0.179049	0.00977246	0.145146	0.269388	0.337773	0.353323	0.307023	0.23606	0.193191	0.139544	0.0968437	0.0662618	0.0657943	0.079218	0.187022	0.334633	0.413681	0.486935	0.559421	0.624718	0.70913	0.755455	0.650038	0.537674	0.403885	0.278948	0.182537	0.20346	0.149333	0.0555016	-0.0624316	-0.184258	-0.32971	-0.423026	-0.411026	-0.403929	-0.364992	-0.317034	-0.202591	-0.183165	-0.0255218	0.107976	0.22941	0.381359	0.7611	1.10754	1.51679	1.73977	1.75019	1.62582	1.42543	1.14849	0.858906	0.564057	0.210908	-0.174603	-0.611515	-0.864477	-0.79446	-0.646111	-0.643474	-0.664316	-0.579549	-0.31705	0.0886041	0.263617	0.390263	0.39338	0.40447	-0.0288452	1.90407	0.841746	1.57656	2.02158	2.4745	2.8099	3.26852	3.55478	4.17152	4.8398	5.58479	6.42062	7.54599	8.73577
0	-20.0732	50.2849	48.7857	47.3365	45.9122	44.6628	43.4271	42.2073	40.9964	39.7893	38.5288	37.254	35.9768	34.6965	33.412	32.1048	30.8047	29.5058	28.2077	26.9455	25.7178	24.4713	23.2579	22.0754	20.9692	19.9014	18.9746	18.1109	17.303	16.5633	15.8661	15.1671	14.5261	13.6132	12.6893	11.7709	10.8252	9.90701	9.01733	8.23606	7.54735	6.89814	6.22529	5.59121	4.96388	4.37559	3.92249	3.50781	3.13048	2.76134	2.39111	1.93032	1.58284	1.71872	1.28961	0.853063	0.47076	0.0371829	-0.271393	-0.455749	-0.543228	-0.574511	-0.49653	-0.372006	-0.143956	0.0960437	0.332139	0.554177	0.649642	0.770632	0.887541	0.93453	0.888809	0.759566	0.473966	0.0744974	-0.257159	-0.501163	-0.672493	-0.818317	-0.942176	-1.03231	-1.08688	-1.10383	-1.03587	-0.875584	-0.684377	-0.586788	-0.455672	-0.212417	0.0495092	0.274361	0.317148	0.331399	0.35498	0.38551	0.47602	0.637995	0.654202	0.632335	0.606426	0.666878	0.761007	0.887268	1.01369	1.15	1.30101	1.44791	1.59988	1.89798	2.1379	2.33683	2.44068	2.5383	2.60513	2.67792	2.72063	2.70641	2.66301	2.59005	2.46906	2.38652	2.37961	2.27112	2.2519	2.32214	2.4525	2.63677	2.90863	3.26357	3.75515	4.23585	4.67454	5.06614	5.3423	5.53549	5.5762	5.40237	5.18268	5.13083	5.14677	5.17901	5.08606	4.99824	4.90898	4.85642	4.79093	4.77811	4.81324	5.02926	5.43379	5.86232	6.30106	6.64423	7.00294	7.34089	7.66055	7.96001	8.29175	9.06483	10.2006	11.5903	12.5893	10.9285	12.3762	12.9706	12.8409	14.8069	16.5733	17.4113	16.8348	15.7805	15.7493	15.8206	15.9137	15.9735	15.6763	15.5303	15.4012	15.2352	15.0776	14.9625	14.8437	14.8432	14.8584	14.8864	14.9035	14.893	14.8802	14.8501	14.8903	14.946	15.0446	14.9285	14.7483	14.5626	14.3727	14.162	13.9017	13.6111	13.342	13.1398	13.0447	13.0385	13.1243	13.2237	13.4244	13.6251	13.8124	13.9086	13.9461	13.927	13.834	13.7074	13.6217	13.5304	13.3709	13.0872	12.7388	12.3836	12.1166	11.9032	11.7673	11.6967	11.6577	11.6248	11.5681	11.4212	11.1831	10.8927	10.5665	10.2258	10.0822	10.0515	9.9044	9.5577	9.20014	8.95336	8.76637	8.65159	8.65848	8.55821	8.3003	7.91489	7.36785	6.77241	6.35955	6.02332	5.88589	6.55045	6.86813	6.88394	6.95934	6.66497	6.31357	5.80033	5.53948	5.1843	4.80386	4.47732	4.21781	4.03778	3.97989	4.00684	4.07338	4.13807	4.19417	4.21567	4.20054	4.16616	4.06994	3.83656	3.75895	3.71242	3.72209	3.26257	3.07155	2.88519	2.69093	2.50694	2.3229	2.15623	2.01294	1.89114	1.78634	1.70645	1.66354	1.67303	1.68406	1.75723	1.89383	2.00813	2.07089	2.12008	2.15431	2.08099	2.01895	1.91601	1.78882	1.5857	1.35882	1.09413	0.814261	0.550032	0.304942	0.108283	-0.0744465	-0.199275	-0.326119	-0.440757	-0.549438	-0.624349	-0.6089	-0.555144	-0.490028	-0.434584	-0.417554	-0.475607	-0.563839	-0.645936	-0.721678	-0.754914	-0.684556	-0.608993	-0.435135	-0.205428	0.0536858	0.287978	0.446508	0.601576	0.874658	1.18949	1.50036	1.76531	2.06673	2.2707	2.37141	2.41185	2.56544	2.77057	2.97698	3.20294	3.46314	3.66805	3.86652	4.05689	4.27239	4.50522	4.75561	5.05356	5.41729	5.83293	6.27827	6.85279	7.46049	8.12619	8.82896	9.53958	10.2646	10.9321	11.6014	12.2819	12.9845	13.6457	14.3	14.9829	15.5953	16.3344	17.1643	18.1246	19.117	20.1613	21.2632	22.4711	23.8134	25.3721	27.0153	28.7298	30.3229	31.9549	33.5652	35.1605	36.761	38.5838	40.3251	41.8491	43.3238	44.5527	45.846	47.1501	48.2426	49.5562	50.797	51.9776	53.151	54.3073	55.3842	56.2094	57.055	57.9693	58.8906	59.8064	60.7066	61.6175	62.4782	63.3525	63.8725	64.232	64.3797	64.3878	64.2111	63.9059	63.0778	62.4374	61.6167	60.6813	59.7124	58.7442	57.6123	56.6309	55.842	55.0981	54.3922	53.6863	52.9918	52.2367	51.3617	50.4302	49.4331	48.3829	47.2566	46.2644	45.4834	44.5978	43.5278	42.4137	41.4068	40.3181	39.2378	38.148	37.0432	35.9631	34.8242	33.7414	32.5363	31.2498	29.9696	28.6864	27.4103	26.1958	25.3538	24.6594	24.091	23.3333	22.6388	22.0318	21.5285	21.1161	20.7438	20.3766	20.0231	19.6605	19.3198	18.9435	18.56	18.2626	17.849	17.4601	17.1096	16.8008	16.5499	16.4166	16.3968	16.5607	16.9195	17.3815	17.9248	18.5244	19.0953	19.6687	20.2254	20.636	21.0707	21.5617	21.6939	21.9376	21.8738	21.9334	21.9264	22.1232	22.6436	23.5215	24.5399	26.611	29.4388	34.6736	40.1135	47.581	56.4608	67.6733	81.6708	98.8248	120.266	142.364	187.871	202.661	210.022	193.171	180.651	140.743	113.618	99.2365	76.4503	58.4266	46.2915	37.9265	32.7613	29.0407	26.0875	22.7406	19.4436	17.2235	15.2665	13.6146	12.1209	10.8654	9.99069	9.17878	8.45757	7.83343	7.30284	6.83614	6.42686	5.88351	5.40276	4.97336	4.61354	4.32906	4.05957	3.81761	3.61463	3.44767	3.32072	3.23792	3.18656	3.16261	3.1794	3.1908	3.18913	3.1643	3.14254	3.06265	2.96238	2.87481	2.80021	2.68173	2.52156	2.36912	2.25504	2.11483	1.89783	1.72523	1.48966	1.27412	1.10494	1.01757	0.99506	1.02138	1.11559	1.25093	1.47963	1.63169	1.74844	1.80311	1.81853	1.70689	1.55608	1.36247	1.09726	0.837785	0.435562	-0.0587933	-0.591568	-1.10625	-1.46642	-1.49296	-1.55857	-1.70587	-1.58934	-1.30384	-0.939637	-0.571939	0.396262	0.710425	0.900496	1.03575	1.05318	0.991416	0.773053	0.460629	0.0730009	-0.315771	-0.520043	-0.593983	-0.551747	-0.271013	-0.0868929	0.115883	0.340414	0.502045	0.607096	0.638009	0.633183	0.622752	0.590806	0.60129	0.650978	0.66112	0.665425	0.627272	0.639455	0.634866	0.655574	0.524802	0.421677	0.272975	0.135458	-0.0400405	-0.23001	-0.388717	-0.506163	-0.576238	-0.544468	-0.428881	-0.237774	0.116091	0.443942	0.685431	0.888167	1.11404	1.29055	1.44332	1.52719	1.49296	1.37986	1.21037	0.996094	0.74056	0.480235	0.265434	0.166216	0.381649	0.759858	1.03133	1.25728	1.51214	1.68648	1.79629	1.85613	1.80975	1.72457	1.67575	1.58987	1.45121	1.25418	0.982376	0.652857	0.341412	0.0532082	-0.140093	-0.281765	-0.37201	-0.426247	-0.398613	-0.304111	-0.182298	-0.00737417	0.217192	0.498929	0.760268	1.18903	1.54819	1.86288	1.9909	2.03443	1.97733	2.07354	2.19629	2.41047	2.478	1.62803	-2.42788	-1.32953	-0.500931	0.0326167	0.0464608	0.076128	0.00189404	-0.109823	-0.272745	-0.429442	-0.575552	-0.157234	-0.333825	-0.559182	-0.769809	-0.951557	-1.00655	-0.943894	-0.797767	-0.585338	-0.269499	0.0816829	0.207334	0.290894	-0.122005	-0.248988	-0.266451	-0.208431	-0.135416	-0.146333	-0.174202	-0.32108	-0.490817	-0.666149	-0.837158	-0.964654	-1.06088	-1.05457	-1.05093	-0.989158	-0.934822	-0.902333	-0.892227	-0.866307	-0.819378	-0.7572	-0.609003	-0.325561	-0.0202789	0.313184	0.627732	0.927871	1.17935	1.43273	1.70153	1.99137	2.24048	2.37767	2.34951	2.28511	2.16155	1.97639	1.77952	1.60102	1.43805	1.35176	1.20923	1.08155	0.96975	0.875587	0.823337	0.79847	0.872216	0.956764	1.05612	1.14806	1.12281	1.09676	1.03744	0.963287	0.892265	0.770818	0.660819	0.557317	0.454247	0.461811	0.519316	0.617256	0.76739	0.925534	1.09532	1.27124	1.45556	1.62616	1.75818	1.89588	2.08895	2.31838	2.47065	2.56287	2.63309	2.70853	2.80118	2.89885	2.96888	3.03713	3.0872	3.14059	3.13539	3.12718	3.12625	3.13018	3.12798	3.11233	3.24482	3.38433	3.54426	3.74931	3.83841	3.91714	3.89871	3.90563	3.93099	4.01617	4.16111	4.39192	4.72405	5.06023	5.37053	5.71843	6.1223	6.54129	7.01168	7.48978	7.86838	8.21574	8.50628	8.73667	8.9805	9.21793	9.53204	9.87519	10.2886	10.7466	11.4276	12.1821	13.116	13.9376	14.8513	15.7823	16.6485	17.4691	18.1892	18.8429	19.4015	19.9185	20.3778	20.7613	21.0979	21.4134	21.711	22.1204	22.5808	23.0361	23.4228	23.7141	23.9361	24.1349	24.3107	24.4111	24.4416	24.236	24.107	23.9847	23.9975	24.0196	23.9902	24.4486	25.0244	25.7724	26.5404	27.2765	27.9946	29.1869	29.6382	30.0338	29.9396	28.919	27.1982	25.0678	22.8444	20.4758	18.1052	16.1052	14.2731	13.7434	13.1824	12.8041	12.6665	12.6278	13.0955	13.2734	13.5651	14.012	14.4844	14.9575	15.3911	15.8138	16.0477	16.0045	15.7661	15.5208	15.1686	14.672	13.9047	12.9908	11.9148	10.5637	9.06641	7.55752	6.16649	4.9519	3.84754	2.8815	2.04464	1.27067	0.620542	0.0582248	-0.308564	-0.4067	-0.475718	-0.526664	-0.56795	-0.539699	-0.489656	-0.402469	-0.332082	-0.263094	-0.267527	-0.27617	-0.288319	-0.302544	-0.355597	-0.409104	-0.490399	-0.432367	-0.289308	-0.217696	-0.156664	-0.107796	-0.0517585	-0.0428151	-0.00110532	0.0491299	0.0940843	0.110986	0.133272	0.136047	0.175522	0.213207	0.263844	0.264346	0.205332	0.146137	0.0739041	0.0421799	0.0430687	0.0679523	0.0603293	0.0771251	0.1178	0.289948	0.577578	0.868675	1.12072	1.23619	1.29227	1.29247	1.25976	1.15805	0.965713	0.704838	0.41178	0.159445	-0.026593	-0.183878	-0.2958	-0.370443	-0.377893	-0.288012	-0.174422	-0.0391278	0.0761983	0.096813	0.128266	0.176369	0.311956	0.435857	0.545912	0.622073	0.626851	0.502873	0.425466	0.351239	0.332391	0.24481	0.169608	0.0722107	-0.0246077	-0.106097	-0.249299	-0.396497	-0.492731	-0.606476	-0.660359	-0.672554	-0.662453	-0.579099	-0.446531	-0.263187	-0.0261483	0.262354	0.606636	0.996432	1.43579	1.93865	2.4335	3.00751	3.61383	4.27889	4.93664	5.70004	6.94944	8.37779
0	-0.0366178	44.801	43.3867	42.0283	40.5794	39.0853	37.7014	36.3148	35.0046	33.7211	32.4729	31.2971	30.0711	28.839	27.636	26.453	25.3186	24.2428	23.2128	22.2394	21.2834	20.3447	19.3401	18.4073	17.4438	16.6443	15.8712	15.0752	14.2995	13.5586	12.9692	12.3825	11.7962	11.2899	10.6762	10.0709	9.51261	8.94273	8.31012	7.60832	6.95101	6.16618	5.46396	4.84922	4.43711	4.28297	3.81945	3.37069	3.08491	2.94454	2.61885	2.39398	2.26681	2.07111	1.82982	1.55505	1.29625	1.06083	0.927101	0.711133	0.732703	0.642847	0.594795	0.500727	0.504534	0.486312	0.507357	0.542295	0.466301	0.39297	0.212528	0.0799017	-0.136082	-0.38291	-0.661833	-0.85567	-0.876806	-0.875549	-0.907625	-0.899534	-0.77814	-0.678481	-0.42916	-0.240469	0.0312286	0.299529	0.545314	0.681661	0.737492	0.796922	0.870318	0.908169	0.958656	1.13704	1.31369	1.37831	1.36359	1.35928	1.26737	1.19386	1.1519	1.18288	1.09545	1.03679	1.0571	1.04719	1.27301	1.34552	1.38371	1.47951	1.70662	1.85497	1.9575	2.0105	1.87692	1.71174	1.56609	1.58397	1.66426	1.80256	1.89755	2.09471	2.28345	2.34458	2.64967	2.88819	3.13844	3.29381	3.45334	3.66404	3.88392	4.12533	4.26594	4.28745	4.39455	4.57798	4.74333	4.84754	4.92388	4.98545	5.14657	5.31975	5.39202	5.51489	5.76691	5.95729	6.13073	6.33128	6.46514	6.51303	6.6081	6.71997	6.80723	6.99104	7.20941	7.43143	7.68151	7.94977	8.40768	9.17999	9.90058	10.7021	11.6583	12.2975	12.9617	13.4445	13.7497	14.0257	14.2325	14.5016	14.7685	15.165	15.6782	16.2134	16.3767	16.4463	16.374	16.3671	16.3606	16.3607	16.2575	16.1133	16.0345	15.9761	15.8201	15.6277	15.4063	15.0427	14.6609	14.458	14.2536	14.0941	13.8888	13.7286	13.5302	13.3542	13.1654	13.1537	13.1762	13.0086	12.8882	12.6406	12.3954	11.9752	11.3827	11.0883	10.7357	10.4757	10.3432	10.2536	10.2337	10.5743	10.7465	10.9166	11.1209	11.2977	11.4433	11.584	11.7274	11.7718	11.7316	11.5963	11.4733	11.3249	11.1876	11.0694	10.9417	10.6403	10.286	9.99146	9.56613	9.23846	8.90947	8.56046	8.26837	8.0294	7.94066	7.71317	7.43337	7.17905	6.93552	6.76745	6.57091	6.46021	6.33693	6.25899	6.14412	6.07651	5.93176	5.98977	5.99456	5.95294	5.85377	5.7365	5.47194	5.14429	4.76705	4.52363	4.33686	4.12359	3.97632	3.89435	3.96857	3.85082	3.72009	3.52847	3.41001	3.7428	3.71403	3.75311	3.82244	4.05042	4.1463	4.23128	4.30759	4.1543	3.9766	3.69105	3.39917	3.06077	2.70571	2.27335	1.95778	1.7433	1.58974	1.43745	1.38705	1.26478	1.2291	1.16929	1.02717	0.910521	0.870381	0.773335	0.580725	0.443877	0.384807	0.286079	0.238808	0.296574	0.2688	0.0608732	-0.0842656	-0.206004	-0.359622	-0.39934	-0.428198	-0.595527	-0.760708	-0.926336	-0.897888	-0.831346	-0.720366	-0.763936	-0.627259	-0.409302	-0.232641	-0.0693656	0.124524	0.239521	0.372461	0.476231	0.617889	0.676519	0.769924	0.752794	0.670176	0.50606	0.473854	0.412134	0.408598	0.303854	0.238433	0.272851	0.368641	0.486607	0.655302	0.860239	1.21851	1.50223	1.83966	2.24557	2.68015	3.16418	3.70037	4.37621	4.98907	5.47151	5.77626	6.10484	6.36438	6.5099	6.68815	6.93932	7.25181	7.71066	8.30189	8.78563	9.38215	9.97393	10.6826	11.3583	12.039	12.6394	13.4483	14.2513	15.0435	15.8175	16.6475	17.5853	18.6312	19.6321	20.8314	22.1258	23.6182	25.1193	26.6317	28.0008	29.3552	30.5827	32.0413	33.5607	35.0876	36.6501	38.3192	40.0657	41.7023	43.3269	44.8534	46.4472	48.0144	49.5331	51.2344	52.9071	54.6449	56.32	57.9964	59.464	60.7216	61.9035	62.8708	63.8671	64.7122	65.6289	66.3359	66.6166	66.6954	66.7573	66.7695	66.7224	66.6158	66.3146	65.9952	65.8236	65.311	64.6468	63.9265	63.0937	62.1638	61.0617	59.6123	58.1856	56.8663	55.3694	53.9353	52.7621	51.6609	50.5888	49.6944	48.7368	47.8352	46.8129	45.6025	44.423	43.3092	42.3012	41.408	40.5195	39.6051	38.8355	37.9084	36.9128	35.8833	34.6354	33.3846	32.1689	30.8593	29.7769	28.8213	28.0141	27.1661	26.3707	25.6293	24.8521	24.1132	23.3785	22.7592	22.1407	21.4588	20.5717	19.8098	18.9883	18.2506	17.6196	17.084	16.5673	16.0697	15.769	15.4704	15.276	15.2155	15.3606	15.3005	15.6608	16.2104	16.9361	17.7879	18.757	19.5316	20.4713	21.1314	21.8337	22.3222	22.7949	23.4742	24.1282	24.024	24.0372	23.996	24.2615	25.0384	26.3397	27.1515	28.71	31.905	35.7457	40.6775	46.6769	55.8545	64.6347	83.8909	100.474	128.522	152.618	179.085	202.376	213.89	201.83	179.392	150.317	122.057	98.179	78.7929	61.1905	52.4719	44.0225	38.044	32.7241	27.8462	23.6948	20.0387	17.4475	15.5283	13.8648	12.4137	11.235	9.78816	8.90823	7.9587	7.20206	6.73314	6.22913	5.92402	5.62248	5.31827	4.85805	4.56694	4.11163	3.91476	3.76249	3.82092	3.80049	3.84198	3.8419	3.93083	3.83682	3.63397	3.28703	2.88994	2.56084	2.18183	1.77683	1.60805	1.43485	1.37044	1.24492	1.19036	1.12154	1.04524	1.07126	1.10596	1.26211	1.28487	1.26947	1.21435	1.17385	1.12143	0.984865	0.794135	0.451572	0.337896	0.130185	0.111472	0.150007	0.234952	0.0316379	-0.0108935	0.0049626	0.0844006	0.412888	0.413263	0.509082	0.400696	0.268401	0.0959335	-0.0861271	-0.191107	-0.277543	-0.36688	-0.39952	-0.378237	-0.509945	-0.522642	-0.442945	-0.307279	-0.265462	-0.210283	-0.167122	-0.150804	-0.159483	-0.0903064	-0.102423	-0.140867	-0.152168	-0.135585	-0.161417	-0.328766	-0.454127	-0.579744	-0.657954	-0.745197	-0.778972	-0.684931	-0.499176	-0.268992	-0.0569044	0.16675	0.311321	0.470355	0.537137	0.438385	0.483558	0.405529	0.484013	0.55527	0.582602	0.582825	0.491632	0.385329	0.340466	0.331978	0.327433	0.265951	0.173044	0.0517871	0.145629	0.217796	0.272974	0.224713	0.229741	0.158199	0.151241	0.167211	0.117923	0.010088	-0.165366	-0.274798	-0.456411	-0.546657	-0.587692	-0.579257	-0.582348	-0.567183	-0.485258	-0.373921	-0.200131	-0.0645344	0.142849	0.337279	0.539575	0.759019	0.996425	1.08822	1.16419	1.15065	1.16705	1.09738	0.805094	0.56869	0.391191	0.234592	0.0994465	0.0671128	0.0295651	0.095643	0.139497	0.276167	0.327054	0.45577	0.495642	0.426031	0.321996	0.213017	0.261067	0.188158	0.168429	0.109903	-0.00981432	0.00742381	0.0780925	0.310437	0.449233	0.635266	0.750532	0.830136	0.885874	1.02986	1.13304	1.15294	1.11506	1.03931	0.853373	0.746012	0.66051	0.492044	0.371478	0.243773	0.145743	0.0978919	0.173255	0.0985447	-0.0881335	-0.259165	-0.374978	-0.440442	-0.56056	-0.693218	-0.692266	-0.694057	-0.697372	-0.682237	-0.66978	-0.655971	-0.613637	-0.530884	-0.367136	-0.22088	-0.107051	-0.0778505	-0.028857	0.0737217	0.0928403	0.0766792	0.0744324	0.0813957	0.0786086	0.116215	0.171192	0.12713	0.0880174	0.167055	0.263568	0.40557	0.592018	0.811084	0.979843	1.11992	1.27368	1.37992	1.54256	1.63367	1.71527	1.83279	1.91671	1.9884	2.08943	2.16714	2.18025	2.16909	2.19224	2.15192	2.11736	2.18301	2.36977	2.54644	2.72245	2.96054	3.20845	3.17148	3.16657	3.20179	3.2824	3.47316	3.34821	3.17706	3.08833	3.07164	3.15252	3.27086	3.33913	3.62982	3.99314	4.20954	4.17051	4.09434	4.0674	3.9641	3.91281	3.77165	3.72288	3.59751	3.40725	3.20893	2.96901	2.82194	2.78592	2.77481	2.94893	3.22704	3.53302	3.59499	3.68278	3.75008	3.82861	4.04441	4.22794	4.4936	4.84489	5.18436	5.70634	6.11376	6.49331	7.0459	7.50125	7.86667	8.04378	8.20818	8.30308	8.3539	7.99572	7.70242	7.45927	7.26668	7.21427	7.41881	7.82978	9.2036	9.95274	10.2362	10.6724	11.1442	11.7342	12.3413	12.9823	13.6954	14.3306	15.1335	15.8639	16.5277	17.1842	17.6357	18.2245	18.7256	19.1331	19.1312	19.519	19.9956	20.3654	20.822	21.4267	22.167	23.211	23.7863	24.3193	25.0652	25.6654	25.6629	26.1022	26.397	26.5808	26.4306	26.3788	26.3886	26.4345	26.1236	26.2198	26.3111	26.6182	27.0702	27.6927	27.8514	28.7806	29.947	32.022	33.3671	34.5105	34.6826	34.0428	31.3757	29.8005	27.9722	26.068	23.9944	22.0932	20.3859	18.891	17.4964	16.8467	16.7263	16.29	16.0718	15.9354	16.2273	16.5	16.7971	17.189	17.4862	17.7059	17.8014	17.9602	18.0296	17.7438	17.3578	16.9447	16.2409	15.0774	13.8708	12.6171	11.3394	9.97836	8.63764	7.36099	6.19638	5.25624	4.49179	3.78998	3.11423	2.50676	1.99211	2.02061	1.7802	1.54539	1.22794	0.995342	0.688331	0.520032	0.379919	0.251271	0.0870736	0.0466575	-0.00404873	-0.0763259	-0.0883542	-0.0301431	-0.0712665	-0.27371	-0.405322	-0.460622	-0.549189	-0.793011	-0.860687	-0.838054	-0.699664	-0.741696	-0.639832	-0.42036	-0.0978673	0.0762774	0.189032	0.298357	0.367244	0.409913	0.455437	0.514598	0.489188	0.481128	0.496786	0.539655	0.421646	0.289861	0.061474	-0.214608	-0.341667	-0.355946	-0.246998	-0.0474956	0.222135	0.346175	0.439243	0.581053	0.656798	0.583439	0.489339	0.424519	0.363412	0.461375	0.597345	0.689927	0.830507	0.986816	1.1411	1.18069	1.25032	1.28499	1.32034	1.26455	1.14795	0.897827	0.586484	0.424558	0.252039	0.0272481	-0.102141	-0.120558	-0.164965	-0.146924	0.0203431	0.060878	0.137789	0.124948	0.041967	-0.0303774	-0.0373381	-0.166487	-0.201907	-0.27785	-0.320463	-0.456652	-0.434742	-0.433701	-0.313426	-0.133256	0.219286	0.472572	1.05126	1.44653	1.68111	1.51514	1.2077	1.63159	3.15701	3.70861	4.41688	4.99264	5.7761
0	20	57.9336	55.5519	53.2057	51.0342	49.0829	47.2865	45.5014	43.8179	42.3095	40.8218	39.4517	38.1048	36.8397	35.6015	34.4031	33.2875	32.147	31.0669	29.9226	28.6672	27.4953	26.4152	25.2519	24.2246	23.1426	22.0467	21.0143	19.9797	18.9217	17.9605	17.0805	16.1102	15.2594	14.4604	13.7102	12.9369	12.1429	11.4845	10.7932	10.1996	9.55206	9.1215	8.50052	7.84213	7.13792	6.35581	5.73595	5.01786	4.35026	4.16336	3.97394	3.79444	3.64355	3.55884	3.72278	3.49645	3.0022	2.543	1.70753	1.3909	1.13728	1.37122	0.817447	0.319341	0.0490198	-0.121094	-0.292361	-0.353187	-0.273585	-0.203687	-0.200199	-0.157428	-0.0409334	0.0282197	0.108209	0.227672	0.0903632	0.0834236	0.0148121	0.145533	-0.027049	-0.165154	-0.33116	-0.305032	-0.179487	-0.0891892	0.0872055	0.342046	0.386024	0.349262	0.301021	0.181838	0.0879208	0.0149253	0.0355864	0.171595	0.0471802	0.0856597	0.0383339	-0.012433	-0.0373347	-0.105715	-0.007337	0.0503752	0.129348	0.185095	0.389927	0.687929	0.746601	0.777392	0.613154	0.601789	0.535665	0.516228	0.495568	0.323756	0.156277	-0.0859109	-0.314971	-0.428552	-0.473445	-0.629639	-0.280956	0.271306	1.12049	2.56516	2.11673	2.1855	1.66681	1.98235	2.37544	2.77376	2.98514	3.14881	3.29898	3.29907	3.2087	3.27946	3.44039	3.56771	3.80615	3.7896	3.89635	4.0906	4.29497	4.59065	4.868	5.26559	5.57043	5.93297	6.20242	6.43319	6.72639	6.96349	6.98283	7.1039	7.34486	7.62121	7.90919	8.09671	8.29886	8.51791	8.92901	9.42253	9.88756	10.3724	11.1571	11.6779	12.1931	12.6617	13.0344	13.4435	13.6904	13.7316	13.6541	13.6204	13.5731	13.5238	13.4963	13.5571	13.5322	13.5111	13.4771	13.8155	13.7114	13.5352	13.2974	12.9637	12.7347	12.4775	12.061	11.9496	11.8734	11.7671	11.8802	11.753	11.4494	11.2852	11.2192	10.9551	10.6424	10.4403	10.3117	10.2111	10.1116	9.97137	9.77823	9.7157	9.54412	9.57238	9.64863	9.81877	10.1081	10.3357	10.5895	10.7222	10.755	10.6404	10.4392	10.2616	10.1406	9.95493	9.70394	9.41394	9.07549	8.70909	8.33568	8.25996	7.92591	7.62604	7.34904	7.19619	7.06838	6.95052	6.88293	6.71702	6.69255	6.69173	6.5923	6.45979	6.22954	5.88092	5.55263	5.28566	4.98869	4.74332	4.47838	4.24665	3.99559	3.80195	3.75555	3.81897	3.85766	3.84656	3.80582	3.79506	3.75398	3.76869	3.7193	3.63957	3.46824	3.16661	2.85347	2.59735	2.26219	2.07037	1.92028	1.77223	1.49879	1.38927	1.32221	1.31286	1.39713	1.32987	1.34835	1.4315	1.51813	1.62946	1.68427	1.64829	1.60461	1.45135	1.30647	1.23722	1.08499	0.844773	0.673727	0.426891	0.156352	-0.0109267	-0.142944	-0.173822	-0.148702	-0.173382	-0.0856056	-0.07718	-0.0235912	0.0117708	0.138344	0.233961	0.33239	0.240278	0.0639198	-0.13015	-0.169808	-0.160046	-0.250966	-0.318312	-0.343838	-0.308888	-0.252339	-0.132957	-0.129448	-0.20226	-0.259156	-0.249025	-0.170893	-0.37403	-0.398282	-0.27088	-0.117123	0.0589447	0.229969	0.346828	0.477347	0.562008	0.548915	0.611347	0.680724	0.67155	0.773553	0.914907	0.804912	0.747987	0.639324	0.640722	0.777282	0.830774	0.826628	1.00888	1.27857	1.54269	1.97142	2.3126	2.82169	3.0299	3.28025	3.61975	3.99442	4.5874	5.19737	5.689	6.23337	6.74174	7.3323	7.93183	8.73423	9.51388	10.2871	11.0488	11.741	12.3979	13.1983	14.0458	14.9069	15.7659	16.8015	17.8632	18.9203	20.173	21.4905	22.9074	24.2988	25.7468	27.4412	29.2568	30.9271	32.6288	34.222	35.6988	37.2047	38.7545	40.2206	41.6671	43.1031	44.194	45.6118	46.9383	48.3227	49.7043	51.1525	52.6257	53.8447	54.9003	56.0384	57.2385	58.2666	59.3357	60.3851	61.4656	62.5705	63.5091	64.3996	65.4229	66.1797	66.7133	67.1875	67.4986	67.7482	67.7386	67.3463	66.8337	66.2898	65.577	64.7115	63.7663	62.5928	61.6471	60.6036	59.8195	58.8751	57.9774	57.079	56.1466	55.2745	54.4614	53.5441	52.7436	51.873	50.6162	49.5062	48.4077	47.2082	45.9047	44.5982	43.355	41.9582	40.7075	39.4334	38.1983	36.976	35.9109	34.8173	33.7971	32.6928	31.6385	30.6596	29.8203	28.901	27.9795	27.0206	25.9942	25.1377	24.3491	23.6122	22.753	21.9189	21.1217	20.4298	19.6525	19.0077	18.3863	17.9141	17.4772	17.2232	16.8341	16.49	16.2716	16.1358	16.1018	16.1816	16.3603	16.6386	17.0767	17.6262	17.8581	18.3482	18.8085	19.3548	19.9932	20.8509	21.3782	22.0475	21.949	22.0497	22.1636	22.119	21.8715	22.3622	22.9936	24.2575	26.3663	28.4683	31.2699	35.568	41.4435	48.7043	58.6318	70.3846	84.578	102.667	129.367	157.199	185.183	206.413	208.671	204.843	184.446	155.157	121.99	99.008	80.659	63.191	49.739	38.9111	32.5484	28.4944	25.8327	23.3847	21.3577	18.1777	16.5013	14.4175	12.5854	11.7539	10.0639	9.37042	8.80859	8.3011	7.51784	6.82634	5.92713	5.22176	4.67899	4.22861	4.01719	3.62473	3.26285	2.92475	2.65123	2.5517	2.49314	2.41907	2.33011	2.33974	2.39756	2.39852	2.35663	2.25325	2.22397	2.17047	2.06635	1.96776	1.9425	1.77952	1.56489	1.37219	1.14163	0.957861	0.799582	0.720789	0.51549	0.241183	0.0228335	-0.0889154	-0.145821	-0.150128	0.0186207	0.20009	0.51178	0.714613	0.89198	0.989541	1.10064	1.16653	1.30089	1.2928	1.1572	1.08403	1.02806	0.761859	0.516689	0.183646	-0.141643	-0.292016	-0.374066	-0.644645	-0.766231	-0.892573	-0.858711	-0.817642	-0.633016	-0.551243	-0.286124	-0.0466311	0.209932	0.266736	0.126256	0.103652	0.00304455	-0.0442276	-0.0436127	-0.100219	-0.14795	-0.00938935	0.0337793	0.149602	0.119356	0.0756593	0.00294784	-0.191258	-0.551387	-0.564711	-0.397109	-0.26819	0.0413912	0.529492	0.613851	0.65487	0.61378	0.469643	-0.238776	0.189979	0.113954	0.0496603	-0.0123556	-0.0423605	-0.0867627	-0.139874	-0.201214	-0.291086	-0.274368	-0.107052	-0.0620656	0.0723207	0.161477	0.139787	0.126174	0.0591311	0.0720546	0.127482	0.213496	0.308948	0.297015	0.257156	0.200657	0.169373	0.10273	0.0740298	0.210451	0.210044	0.325594	0.45749	0.55333	0.683713	0.701871	0.765991	0.908597	1.01103	1.16924	1.36166	1.49299	1.57111	1.60479	1.59082	1.54022	1.46937	1.41313	1.36914	1.35154	1.14327	0.821587	0.505848	0.227508	0.00617663	-0.0847838	0.0759501	0.318309	0.540395	0.635136	0.706487	0.852098	1.02382	1.07694	1.16233	1.34839	1.55293	1.7339	1.99	2.05436	2.00494	1.95516	1.88809	1.80248	1.72782	1.73013	1.44494	0.979384	0.547646	0.245299	-0.0315759	-0.13114	-0.145733	-0.160125	-0.0481816	0.0310789	0.177066	0.34378	0.443173	0.494374	0.42423	0.386788	0.246425	0.123923	-0.00124161	-0.110043	-0.342942	-0.652566	-0.864855	-1.07059	-1.24186	-1.24874	-1.13167	-0.987291	-0.787602	-0.502537	-0.282336	-0.0483535	0.207637	0.464717	0.754781	1.04234	1.10934	1.14806	1.23562	1.2682	1.21152	1.14283	1.19605	1.17139	1.2921	1.52661	1.74099	2.01961	2.24303	2.38581	2.44218	2.51637	2.54784	2.52208	2.54658	2.61449	2.66642	2.79092	2.96821	3.23528	3.43568	3.51033	3.62157	3.69342	3.76791	3.79225	3.78122	3.69861	3.60233	3.42555	3.43794	3.41335	3.41089	3.36494	3.41411	3.46148	3.55422	3.57383	3.54372	3.39496	3.25104	3.11348	3.05145	3.01522	3.09749	3.23772	3.40295	3.53283	3.53531	3.66415	3.86209	3.994	4.08515	4.13453	4.19138	4.29956	4.34615	4.48612	4.57841	4.67689	4.91775	5.11866	5.39173	5.57005	5.80454	6.16852	6.43432	6.59355	6.70895	6.70694	6.58953	6.59544	6.60496	6.64401	6.88269	7.06588	7.21122	7.56985	7.89683	8.14137	8.28616	8.52977	8.85	9.16584	9.63352	10.2492	10.769	11.4463	12.2143	12.6416	12.9311	13.3385	13.7802	13.9058	14.0003	14.0581	14.0834	13.895	14.1587	14.3431	14.9409	15.888	16.83	17.8262	18.9608	19.7292	20.4547	20.7215	21.2262	21.6402	22.0848	22.523	22.8847	23.0873	23.6717	24.4546	25.1582	25.7455	26.3124	26.8917	27.3041	27.6123	27.9429	28.2628	28.4367	28.6176	28.7955	28.9746	29.0025	29.2405	29.4766	29.4178	29.7414	30.3659	31.0322	31.8987	32.7948	33.3579	34.2487	35.2369	35.6666	35.1763	33.512	30.7992	28.3056	24.474	21.8678	20.2395	18.6734	17.5031	16.6109	16.4056	16.0958	15.9819	15.8462	15.8836	16.0163	16.3147	16.7185	17.2744	17.9074	18.5561	19.1197	19.311	19.3242	19.23	18.9183	18.3481	17.2943	16.2565	15.3028	14.0876	12.5658	11.0198	9.47899	8.01184	6.76742	5.65909	4.57657	3.742	3.07437	2.5561	2.05613	1.55234	1.11952	0.706235	0.272932	0.0530186	-0.0692014	-0.115958	-0.216443	-0.243699	-0.256467	-0.194304	-0.0767909	0.0906951	0.224205	0.238366	0.192189	0.173424	0.18611	0.176872	0.00455404	-0.12667	-0.232396	-0.400771	-0.469282	-0.341884	-0.175204	-0.0532045	0.00618613	0.176182	0.433647	0.509308	0.463627	0.521633	0.635847	0.685144	0.793232	1.01113	1.04316	0.870656	0.772766	0.631981	0.457871	0.320661	0.188425	0.144657	0.133283	0.0749251	0.07312	0.162474	0.216296	0.0761641	0.00171313	-0.14788	-0.269605	-0.269153	-0.34267	-0.393037	-0.418048	-0.389519	-0.313707	-0.289873	-0.319233	-0.256927	-0.219432	-0.06329	0.136439	0.428133	0.552756	0.611394	0.631307	0.613945	0.46603	0.362428	0.174852	0.0747878	0.0193534	0.0271882	0.0244732	0.0547881	0.0874328	0.222447	0.215263	0.11182	-0.149753	-0.266125	-0.46945	-0.203912	-0.142424	-0.161629	-0.171191	-0.158335	-0.152546	-0.08357	-0.0581241	0.0783574	0.227451	0.445168	0.819922	1.28612	1.90419	2.61678	3.45158	4.51709	5.44902	6.61378
20	-20.0732	34.3435	32.7369	31.7655	30.5528	29.3843	28.9373	28.7123	27.8864	27.0206	26.1369	25.1267	24.003	22.7592	21.3758	20.1424	19.0254	18.0349	17.1041	16.1353	15.0742	14.3124	13.6666	12.9792	12.168	11.3127	10.5478	9.78978	9.18031	8.55559	8.07269	7.66695	7.35645	7.10185	6.81347	6.58437	6.33323	6.11865	5.98731	5.85822	5.71059	5.49803	5.19727	4.78658	4.26605	3.79443	3.46688	2.96705	2.43638	2.00938	1.52655	1.13841	0.845823	0.563809	0.363374	0.312638	0.0402584	-0.0394073	-0.0082466	0.0302605	0.0886303	0.145763	0.215409	0.288918	0.331747	0.2976	0.235589	0.119238	0.0565091	0.0658107	-0.0633272	-0.19638	-0.405237	-0.693938	-0.863063	-0.866652	-0.859623	-0.892513	-0.828997	-0.563667	-0.133398	0.196228	0.560082	0.726085	0.811479	0.691666	-0.314082	0.0100182	-0.0739534	-0.280658	0.534856	1.88486	1.67814	1.90438	2.19772	2.61767	2.92926	3.2362	3.74017	4.26618	4.8497	5.32124	5.61847	5.72736	5.46191	5.39113	5.29123	5.20138	5.13607	5.02933	4.98054	4.8855	4.74954	4.68526	4.63757	4.55708	4.54927	4.53446	4.69081	4.93028	5.21351	5.46258	5.80184	6.03666	6.27056	6.41684	6.61019	6.69328	6.68618	6.66143	6.56434	6.47046	6.43317	6.30859	6.07897	5.89178	5.77639	5.61786	5.78326	6.13804	6.634	7.16642	7.618	7.97017	8.29157	8.34611	8.43562	8.59681	8.58501	8.42234	8.52583	8.64058	8.83556	9.11997	9.40353	9.67664	10.1354	10.6114	11.191	11.6909	12.296	12.7983	13.1754	13.5654	13.9671	14.3179	14.6354	15.0099	15.3085	15.6256	15.8911	16.127	16.4389	16.7985	17.0382	17.2654	17.3282	17.3678	17.4302	17.4889	17.3758	17.2885	16.7892	16.2195	15.7221	15.0815	14.8989	14.8649	14.9019	15.2037	15.5232	15.8917	16.3	16.2892	16.1472	15.8013	15.3284	14.9573	14.6593	14.5369	14.5524	14.3768	14.1312	13.9243	13.7306	13.5174	13.4612	13.4041	13.5865	13.6213	13.6414	13.587	13.4509	13.2925	13.1791	13.0965	12.8728	12.6275	12.4586	12.2607	12.0743	11.9816	11.9983	12.0362	12.1339	12.3035	12.4219	12.6458	12.6597	12.5332	12.3277	11.8349	11.4473	10.8264	10.4926	10.3265	10.2021	10.1423	9.91758	9.7182	9.45392	9.17324	8.91009	8.59024	8.26497	7.92715	7.58091	7.23131	7.08742	7.08019	6.66285	6.57338	6.6181	6.58301	6.57961	6.58525	6.3931	6.14868	5.87246	5.60839	5.31139	4.97996	4.71513	4.33842	3.97363	3.46913	3.10991	2.85073	2.7095	2.63905	2.62696	2.8187	2.83887	2.79436	2.71574	2.66248	2.51821	2.45528	2.38635	2.30663	2.21255	2.19388	2.18429	2.17129	2.19455	2.24663	2.28202	2.27017	2.20484	2.10906	1.87164	1.54912	1.17491	0.892853	0.681248	0.449721	0.406452	0.350789	0.241732	0.238298	0.278967	0.387156	0.585164	0.727936	1.0333	1.3843	1.58915	1.62059	1.45398	1.32576	0.942613	0.522363	0.213068	-0.082372	-0.293585	-0.563757	-0.812668	-0.998136	-1.02896	-0.979953	-0.88385	-0.863578	-0.827618	-0.63627	-0.514427	-0.492176	-0.589772	-0.510939	-0.37057	-0.156414	0.0391249	0.212496	0.367791	0.508102	0.686779	0.879608	1.05075	1.33298	1.63468	1.8637	2.13501	2.43929	2.70025	3.0821	3.4642	3.82356	4.26331	4.69528	5.18948	5.68643	6.19064	6.60353	7.07756	7.60647	8.16632	8.84453	9.5343	10.0686	10.6161	11.2704	11.9487	12.5529	13.015	13.5889	14.1773	14.8605	15.7339	16.7124	17.6823	18.6663	19.8142	20.9898	22.2119	23.6155	25.0494	26.5856	28.2038	29.7753	31.3318	32.8091	34.2122	35.4567	36.8019	38.1568	39.4826	40.7955	42.1513	43.4984	44.7687	46.2079	47.8139	49.3976	50.9845	52.6138	54.3091	55.9451	57.5376	59.0297	60.3556	61.4422	62.3263	63.2303	64.0034	64.7331	65.2394	65.6927	66.0722	66.2236	66.1523	66.1929	66.1206	65.7889	65.1887	64.5846	63.893	63.1884	62.5492	61.7595	60.7306	59.658	58.6509	57.6745	56.641	55.6903	54.6049	53.7264	52.7245	51.5948	50.4216	49.3768	48.4603	47.417	46.421	45.3296	44.3218	43.4098	42.3634	41.3261	40.1018	38.9425	37.6998	36.4206	35.2905	34.1833	33.1629	32.1658	31.1894	30.2227	29.3804	28.4623	27.4007	26.4265	25.5283	24.6887	23.9329	23.1499	22.3852	21.7593	21.0926	20.5285	19.7852	19.2075	18.5989	18.3838	18.5295	18.5555	18.5861	18.3832	17.8568	17.1388	15.6451	15.6362	15.6746	14.4336	14.5382	15.9409	17.4876	18.2357	19.0351	19.4677	20.0768	20.5616	20.9731	21.3552	21.7302	22.3912	22.9065	22.9263	23.1422	23.1477	23.7621	24.5436	26.1585	27.8847	31.4832	35.9979	41.7833	48.5796	56.3668	66.755	81.5281	98.9775	121.402	156.896	183.296	208.187	217.692	206.5	180.46	146.338	117.027	96.1012	77.8086	64.6847	53.7027	46.2496	40.7604	32.3697	26.2609	22.4788	19.4044	16.8791	15.0996	13.4847	12.5548	11.3861	10.6678	10.0629	9.65567	9.32235	8.89663	8.01442	7.56207	7.30579	6.94948	6.50763	6.19472	5.92194	5.57511	5.21593	4.82322	4.50923	4.08565	3.88085	3.71017	3.49493	3.22553	3.00273	2.77977	2.67672	2.40302	2.06872	1.80189	1.62391	1.60895	1.72862	1.86584	1.96507	2.0559	1.99025	1.86069	0.750386	0.544388	0.319039	0.230513	0.178844	0.0989691	0.244614	0.3924	0.659307	0.935341	0.832804	0.752453	0.702609	0.795322	0.575022	0.538969	0.515889	0.534097	0.513773	0.668815	0.70972	0.713502	0.77758	0.845068	0.889411	0.806099	0.656085	0.434636	0.0311679	-0.351431	-0.593886	-0.659762	-0.787743	-0.871767	-0.74924	-0.68245	-0.62207	-0.347118	-0.0988106	0.17902	0.396905	0.644475	0.849947	0.920928	0.817133	0.690051	0.38117	0.192676	0.0701782	-0.187127	-0.471012	-0.656353	-0.784342	-0.760445	-0.67406	-0.619873	-0.491308	-0.302366	-0.21759	-0.150115	-0.274234	-0.287016	-0.428896	-0.630643	-0.761459	-0.837256	-0.893848	-0.809153	-0.652633	-0.515861	-0.396608	-0.213079	-0.0139533	0.0990181	0.349038	0.753893	1.11369	1.34338	1.4847	1.57895	1.59694	1.49884	1.29437	1.20372	1.23193	1.20458	1.13948	1.17087	1.1296	1.08674	1.08391	1.08441	1.05291	1.03676	1.12163	1.25687	1.26249	1.22295	1.15993	1.15182	1.19133	1.17098	1.17254	1.15454	1.20967	1.30818	1.33725	1.3598	1.44148	1.56778	1.73983	1.83463	1.67098	1.42837	1.13319	0.739657	0.2411	-0.194335	-0.545322	-0.785373	-0.805286	-0.735751	-0.678976	-0.595944	-0.370771	-0.0316334	0.4521	0.971191	1.45373	1.79932	1.95462	2.00544	1.83056	1.64	1.39116	1.06307	0.788376	0.519266	0.280478	0.0656891	-0.0362892	-0.150069	-0.344275	-0.400917	-0.404664	-0.178805	0.107747	0.318305	0.333365	0.474545	0.630618	0.745237	1.37055	1.54511	1.48501	1.3622	1.06095	0.820324	0.41496	-0.0042822	-0.392349	-0.591858	-0.807113	-1.09862	-1.24693	-1.27033	-1.22232	-1.09165	-0.953537	-0.730817	-0.573334	-0.464907	-0.29551	-0.127606	0.00558334	0.0895273	0.259515	0.288921	0.281907	0.302095	0.365488	0.451617	0.606941	0.869649	1.14476	1.51549	1.79416	2.04896	2.24205	2.26496	2.12522	1.86015	1.57921	1.16343	0.740578	0.568254	0.579686	0.624064	0.953991	1.11743	1.32522	1.72596	2.00444	2.31155	2.62826	2.88054	3.07351	3.19778	3.19296	3.0416	2.80066	2.58179	2.3719	2.07975	1.87146	1.73169	1.60681	1.543	1.60099	1.77081	2.04106	2.37146	2.76958	3.13453	3.13251	2.9893	2.79685	2.42488	1.85873	1.23585	2.5769	2.62784	2.68153	2.72628	2.86702	3.00563	3.10673	3.2137	3.38397	3.61071	3.77592	3.86982	4.01822	4.20291	4.33612	4.49219	4.72716	5.02964	5.40409	5.7138	6.09095	6.36718	6.61022	6.88809	7.06398	7.34669	7.51234	7.58185	7.70813	7.8648	8.01764	8.20233	8.44424	8.65279	8.93486	9.18995	9.46529	9.76518	10.0659	10.3409	10.662	11.0324	11.4427	11.9364	12.4039	13.0029	13.4748	14.1052	14.812	15.6341	16.4175	17.1929	18.067	18.8811	19.7254	20.5562	21.1332	21.585	21.961	22.3201	22.3373	22.7594	23.2304	23.7915	24.2221	24.7202	25.1539	25.5721	25.864	26.032	26.2438	26.3562	26.485	26.5157	26.4685	26.4099	26.4105	26.3536	26.5624	26.8147	27.2584	27.6617	28.2836	29.1724	29.9318	30.8042	30.7861	30.9394	29.5974	27.5423	24.9183	21.4983	18.7655	16.9359	15.8428	14.7455	14.4666	13.6254	13.1649	13.0088	13.0818	13.4151	14.03	14.573	14.6541	15.2372	15.914	16.7063	17.126	17.4396	17.5844	17.5602	17.1769	16.6046	15.5997	14.151	12.7922	11.4601	10.0559	8.61886	7.22166	5.94676	4.73504	3.67501	2.8557	1.89528	1.14868	0.59726	0.150463	-0.0455539	-0.0954519	-0.0422227	0.0235248	0.0539449	0.147247	0.236589	0.309362	0.336181	0.32376	0.20302	0.0978981	0.0228854	-0.152449	-0.24719	-0.32335	-0.544907	-0.714209	-0.857463	-0.96367	-0.957398	-0.892624	-0.739615	-0.609548	-0.453243	-0.321826	-0.123803	0.0378508	0.131994	0.366683	0.683511	0.922708	1.03009	1.09404	1.04222	0.870549	0.805963	0.699617	0.667619	0.718226	0.740599	0.991471	1.08306	1.16874	1.08784	1.02143	1.04005	1.20639	1.22405	1.20845	1.16525	0.988889	0.741317	0.316304	0.0559418	-0.157727	-0.14183	0.128985	0.181206	0.0194235	-0.0282851	-0.0743722	-0.129405	-0.26156	-0.362109	-0.402467	-0.383616	-0.315397	-0.0616491	0.0325539	0.132438	0.224553	0.281198	0.355728	0.341199	0.454932	0.529858	0.602093	0.731274	0.640906	0.47127	0.315331	0.132841	-0.0148649	-0.136473	-0.342676	-0.556241	-0.665343	-0.700737	-0.723748	-0.636942	-0.449304	-0.148596	0.279527	0.734009	1.33313	2.00121	2.68851	3.45569	3.9977	4.6912	5.60924	6.39493	7.31072	7.98625
20	-0.0366178	54.0744	51.8195	49.455	47.6777	45.8772	44.1399	42.6115	41.1455	39.7586	38.3686	36.9421	35.5261	34.1084	32.6992	31.256	29.8307	28.4653	27.161	25.8895	24.5818	23.2977	22.1475	21.0756	20.116	19.2848	18.5111	17.7739	17.0505	16.3386	15.5695	14.7759	13.9957	13.1709	12.3019	11.4741	10.6485	9.83768	9.04556	8.20114	7.37368	6.59281	5.88423	5.2865	4.76195	4.30934	3.92877	3.62492	3.32852	3.08929	2.88676	2.72731	2.65578	2.66174	2.59313	2.40256	2.10272	1.73571	1.2082	0.483564	0.0383125	-0.37394	-0.569263	-0.483732	-0.384957	-0.272558	-0.162159	-0.0504427	0.0525694	0.205129	0.366817	0.539511	0.690203	0.809399	0.756997	0.57197	0.364279	0.111821	-0.114369	-0.322728	-0.514747	-0.691326	-0.772706	-0.808129	-0.79437	-0.828985	-0.753001	-0.600843	-0.366877	-0.0724241	0.193045	0.450692	0.723783	0.946794	1.18216	1.44251	1.68658	1.89448	2.09293	2.27337	2.41577	2.48727	2.49092	2.50961	2.57303	2.6329	2.72007	2.83413	2.94163	2.96591	2.93529	2.8432	2.73632	2.57948	2.53507	2.53245	2.58262	2.72302	2.9872	3.23038	3.4865	3.76924	4.02863	4.27419	4.49813	4.68526	4.84862	4.90549	4.86908	4.82384	4.77286	4.79944	4.86955	5.00353	5.1641	5.37974	5.60591	5.84723	6.107	6.35013	6.52383	6.67784	6.87993	7.08263	7.2952	7.53205	7.80289	8.08771	8.37052	8.65098	8.79626	9.25826	9.82488	10.4362	11.0416	11.5606	11.9831	12.1439	12.3299	12.5771	12.8712	13.1466	13.4205	13.6789	13.8814	14.0771	14.2737	14.481	14.6755	14.9427	15.189	15.4602	15.7267	15.9601	16.0475	16.0581	15.9189	15.8796	15.8608	15.8187	15.6974	15.5216	15.1785	15.1652	15.2174	15.3166	15.4494	15.6156	15.8443	16.1382	16.2778	16.4062	16.5299	16.5344	16.4211	16.335	16.2178	16.3578	16.5472	16.7744	16.883	16.5556	15.9575	15.4116	15.1648	15.3602	15.1809	15.0623	14.9329	14.8344	14.6772	14.505	14.3071	14.1148	13.9047	13.6919	13.4321	13.1106	12.7502	12.3602	11.9093	11.4652	11.1195	10.9552	10.8497	10.7773	10.7466	10.7429	10.7486	10.6867	10.5442	10.4117	10.3422	10.2932	10.1771	9.96492	9.7108	9.46074	9.24366	9.05919	8.85536	8.70848	8.55645	8.39325	8.22722	8.05309	7.86218	7.6458	7.42229	7.20796	6.98935	6.77581	6.52474	6.27092	6.01842	5.77478	5.60212	5.53078	5.43063	5.34978	5.22425	5.12777	5.07365	5.01961	4.95236	4.89737	4.82793	4.80744	4.7974	4.76901	4.69663	4.58074	4.41183	4.21229	3.98654	3.74985	3.58149	3.5056	3.45764	3.43804	3.48259	3.50179	3.44472	3.38732	3.25494	3.06989	2.85926	2.62036	2.36413	2.02596	1.65371	1.27643	0.891217	0.517075	0.177668	-0.0646164	-0.241724	-0.43209	-0.608107	-0.740112	-0.835301	-0.849787	-0.801037	-0.678822	-0.514881	-0.26369	0.0209982	0.271284	0.352685	0.394731	0.483505	0.598661	0.672018	0.754344	0.724904	0.621513	0.411726	0.155811	-0.0456974	-0.148219	-0.222953	-0.25482	-0.238354	-0.226927	-0.205571	-0.229193	-0.264852	-0.362782	-0.357408	-0.154177	0.237207	0.651435	1.05181	1.41975	1.77876	2.082	2.35336	2.59833	2.80591	2.984	3.1441	3.30423	3.41375	3.26302	3.3878	3.61078	4.0101	4.38012	5.06808	5.5651	6.0842	6.62387	7.18329	7.72634	8.21421	8.68679	9.06352	9.4653	9.8378	10.2803	10.7627	11.3423	12.0408	12.8789	13.8102	14.8128	15.8597	16.9038	18.0031	19.2281	20.5317	22.0036	23.5361	25.1054	26.7253	28.2529	29.7965	30.6404	31.3882	32.1667	33.04	34.2412	35.5531	37.1061	38.6185	40.0131	41.4189	42.8626	44.5085	46.3119	48.1076	49.8599	51.5881	53.3262	55.0579	56.6166	57.6936	58.7318	59.6643	60.5887	61.4397	62.3696	63.1022	63.67	64.0024	64.0896	64.0866	64.0696	63.9752	63.6253	63.2425	62.8836	62.5315	62.1695	61.7754	61.422	61.1392	61.1834	61.0879	60.6993	60.2688	59.6613	58.8829	57.8778	56.6935	55.3989	54.265	53.1095	51.8981	51.2464	49.9348	48.7007	47.4058	46.0836	44.7197	43.4298	42.1196	40.7748	39.3707	37.8655	36.3669	34.9142	33.6118	32.4801	31.5081	30.6918	29.9966	29.3123	28.7563	27.906	26.9888	26.0086	25.0575	24.13	23.3026	22.4583	21.5439	20.6125	19.7707	18.9921	18.3211	17.8451	17.4034	17.0088	16.6168	16.3162	16.1256	16.0338	16.0008	15.9692	15.9551	15.9213	15.879	15.9325	16.0898	16.2863	16.66	17.0203	17.5192	18.0376	18.719	19.3567	19.7963	20.0928	19.9929	20.4492	21.0704	21.8094	23.0846	23.4264	24.4859	25.7079	27.2553	29.0268	31.6114	35.5764	40.5195	46.7675	56.5175	67.7705	81.7221	103.062	126.551	157.073	187.212	212.458	212.192	205.82	183.932	152.456	121.668	99.8193	80.2143	65.2248	54.0768	44.582	37.3466	31.6204	26.3393	22.4506	19.3892	16.5686	14.4729	12.7252	11.5123	10.3083	9.56152	8.74039	8.06743	7.52457	7.07655	6.31758	5.38001	5.07512	4.72004	4.54708	4.21475	3.92628	3.56071	3.06669	2.9162	3.026	3.3836	3.74986	4.04405	4.24456	4.36195	4.44521	4.46887	4.45592	4.08968	3.91354	3.86584	3.8115	3.58677	3.35801	3.13679	2.90858	2.72564	2.55082	2.391	2.14366	1.81352	1.50291	1.38624	1.29596	1.23794	1.10518	0.950343	0.776247	0.609055	0.432586	0.283704	0.0942692	-0.0932962	-0.227777	-0.33753	-0.423379	-0.409543	-0.375051	-0.3503	-0.300655	-0.230602	-0.156854	-0.0649046	-0.0125803	0.120113	0.176201	0.257094	0.451141	0.578534	0.511885	0.303162	0.079608	-0.164444	-0.342629	-0.50213	-0.610013	-0.695686	-0.743923	-0.784683	-0.75657	-0.378683	-0.203389	-0.0729283	0.0391519	0.196306	0.34604	0.4746	0.422223	0.361872	0.268594	0.135904	0.0316264	-0.0152272	-0.0658686	-0.103162	-0.129274	-0.145741	-0.176427	-0.213425	-0.229587	-0.275996	-0.360486	-0.421629	-0.475932	-0.488286	-0.474332	-0.355291	-0.19952	-0.0390994	0.197237	0.416854	0.512162	0.613763	0.708317	0.796671	0.889574	0.951464	1.00994	1.05377	1.1147	1.20034	1.28258	1.35214	1.41133	1.45505	1.48486	1.49908	1.48449	1.44876	1.37784	1.25403	1.03046	0.830565	0.578049	0.32838	0.0872846	-0.0257889	-0.097894	-0.0786998	0.103202	0.311767	0.541557	0.746292	0.936655	1.10063	1.25446	1.31318	1.34219	1.31629	1.21432	1.01926	0.612425	0.166569	-0.280057	-0.75793	-0.962607	-0.850282	-0.672228	-0.387405	-0.0246518	0.423818	0.94366	1.41903	1.77685	2.13604	2.39187	2.58019	2.71121	2.80214	2.90025	2.91285	2.82877	2.5312	2.11513	1.72088	1.32789	1.04256	0.851843	0.572924	0.664695	0.932508	0.931797	0.778473	0.592457	0.385956	0.202359	0.00427631	-0.150532	-0.285309	-0.403998	-0.501717	-0.57176	-0.591441	-0.575823	-0.526306	-0.47281	-0.427756	-0.478171	-0.549099	-0.575223	-0.698054	-0.885142	-0.968322	-1.0898	-1.15554	-1.10293	-1.11037	-1.03752	-0.926362	-0.849299	-0.723426	-0.598865	-0.445501	-0.239698	-0.026075	0.147084	0.267318	0.240291	0.171145	0.111489	0.0523359	-0.0669178	-0.216148	-0.415272	-0.497431	-0.531471	-0.429024	-0.289578	-0.0138142	0.260545	0.557711	0.864873	1.12017	1.39458	1.68134	1.9474	2.18071	2.38765	2.52589	2.52806	2.5118	2.45192	2.37029	2.2749	2.21227	2.10216	2.02927	1.95595	1.92577	1.86046	1.80906	1.68474	1.54942	1.43645	1.34797	1.17955	0.961924	0.803224	0.744294	0.767058	0.85813	1.06443	1.34051	1.72332	2.12856	2.52712	2.88276	3.15984	3.32719	3.27811	3.13964	2.91442	2.52397	2.17954	1.93237	1.7698	1.68016	1.64014	1.68663	1.84182	2.13853	2.57299	3.17945	3.6755	4.00675	4.25907	4.4323	4.55883	4.61221	4.63143	4.68288	4.84025	5.09167	5.31801	5.52592	5.60451	5.58946	5.5773	5.76872	6.14445	6.62764	7.14186	7.64626	8.16276	8.64673	9.12804	9.60381	10.0671	10.5486	11.0285	11.5087	12.0124	12.436	12.7661	13.0849	13.4033	13.765	14.2564	14.8359	15.3632	15.8789	16.4283	16.9663	17.5673	18.2042	18.8511	19.5099	20.1172	20.6516	21.1392	21.6338	22.1157	22.5917	23.0707	23.5178	23.9621	24.3603	24.6767	24.8874	24.978	24.9981	25.0556	25.0545	25.0697	25.162	25.4231	25.9211	26.677	27.3149	27.8759	28.8861	29.8675	31.0492	32.1303	32.8232	33.3081	32.258	30.7735	28.1391	25.2881	22.3686	19.8418	17.9738	16.2835	15.2862	14.3212	14.421	14.1203	13.9321	14.3001	14.3834	14.5189	14.6719	14.897	15.161	15.3708	15.4102	15.3491	15.1256	14.8341	14.5942	14.0566	13.4097	12.6004	11.7177	10.7231	9.71407	8.69134	7.68042	6.72146	5.82515	5.2492	4.57305	3.81592	3.19106	2.62698	2.13611	1.64974	1.19615	0.793221	0.422666	0.0807464	-0.15892	-0.356362	-0.510644	-0.629658	-0.713938	-0.758073	-0.770265	-0.747591	-0.696392	-0.618796	-0.515453	-0.407415	-0.353466	-0.262309	-0.190765	-0.156578	-0.130278	-0.113586	-0.0881767	-0.0127711	0.0278474	0.0733549	0.0906226	0.110137	0.107359	0.0919191	0.0659323	0.0860031	0.26784	0.486245	0.746033	1.04307	1.33437	1.52531	1.65937	1.77377	2.02398	2.26509	2.4999	2.67692	2.75701	2.78216	2.64774	2.48096	2.27405	2.0378	1.78996	1.54953	1.27321	0.982014	0.704025	0.459901	0.250492	0.0800178	-0.0539104	-0.111322	-0.137911	-0.144849	-0.0485207	0.0797308	0.246176	0.418091	0.491871	0.501503	0.453673	0.453289	0.441954	0.460017	0.497023	0.465257	0.358545	0.220298	0.0968903	-0.024823	-0.136515	-0.186459	-0.212085	-0.259266	-0.300785	-0.344894	-0.391555	-0.419	-0.450382	-0.460126	-0.478579	-0.472645	-0.441887	-0.386342	-0.302937	-0.163156	-0.000694541	0.21063	0.5087	0.870708	1.29862	1.81274	2.46967	3.14142	3.89213	4.61124	5.37447
20	20	39.5417	37.4721	35.4057	33.7199	32.1088	30.9606	29.7837	28.5734	27.3828	26.0217	24.8501	23.7555	22.786	21.7858	20.8388	20.0814	19.3679	18.72	17.9951	17.2866	16.3676	15.5266	14.7787	14.1794	13.6703	12.8239	11.8455	10.8852	9.91739	8.85865	7.72893	7.3512	7.10193	6.95746	6.89343	6.55403	6.22933	5.76877	5.38301	4.94673	4.43631	3.81614	3.01239	2.38347	1.75392	1.18367	0.693761	0.317737	0.069297	-0.0454162	0.100144	0.118395	0.253421	0.302578	0.324057	0.376703	0.48654	0.492038	0.626829	0.672288	0.660485	0.505018	0.242848	-0.0505362	-0.214184	-0.357983	-0.496927	-0.629022	-0.657682	-0.736771	-0.739789	-0.743191	-0.772232	-0.80272	-0.7796	-0.674529	-0.586885	-0.520234	-0.422725	-0.33478	-0.107967	0.176937	0.478689	0.845514	1.14557	1.39937	1.54621	1.75486	2.03545	2.11701	2.00123	1.83905	1.68834	1.47171	1.03644	0.707989	0.464428	0.297801	0.138683	0.125827	0.226135	0.529527	0.968756	1.44111	1.95938	2.18755	2.26987	2.5814	3.0725	3.64436	4.01902	4.11297	4.24284	4.38433	4.63387	4.71928	4.6541	4.35856	3.85011	3.55516	3.82109	3.82283	3.73012	3.6395	3.53509	3.4844	3.52183	3.5815	3.64187	3.73745	3.72479	3.918	4.09884	4.3431	4.5968	4.83354	5.19904	5.40359	5.56758	5.6893	5.64747	5.68608	5.71061	5.76931	5.80704	6.5552	6.70698	6.86713	7.08697	7.31198	7.52995	7.80184	8.08188	8.28778	8.45669	8.67925	8.86017	9.03211	9.25704	9.60663	10.0006	10.4858	11.0659	11.7364	12.3197	12.9715	13.6098	14.357	14.9948	15.4646	15.7914	16.059	16.2862	16.4472	16.509	16.4825	16.2887	16.0893	15.8764	15.6076	15.2861	14.9395	14.6095	15.2052	15.153	15.0458	14.9209	14.5924	14.4092	14.2204	14.0476	14.0725	13.9589	13.7983	13.6193	13.4204	13.261	13.1499	13.1689	13.1243	13.0346	12.9862	13.0505	13.011	12.9632	12.8782	12.7737	12.6816	12.5731	12.4529	12.3841	12.3819	12.4422	12.4932	12.4448	12.3054	12.2785	12.226	12.1753	12.0851	11.9098	11.6431	11.3626	11.0928	10.7147	10.4259	10.1155	9.9319	9.91258	9.87	9.87116	9.84399	9.75945	9.64554	9.42448	9.21416	9.04433	8.82513	8.58981	8.31421	7.99255	7.57957	7.05329	6.36464	6.04279	5.77361	5.70507	5.73782	5.66779	5.68367	5.65638	5.78055	5.92356	5.99531	5.95806	5.81227	5.46753	5.00844	4.10021	3.64234	3.23043	2.98363	3.28221	3.21918	3.07244	2.87856	2.78107	2.75564	2.61531	2.50562	2.35535	2.23597	2.15241	2.02719	1.84302	1.68101	1.47014	1.37287	1.30776	1.31501	1.29101	1.31133	1.27514	1.26146	1.19832	1.23249	1.54333	1.5834	1.51903	1.29812	0.957791	0.667242	0.349142	0.211216	0.157735	0.133233	0.129792	0.13299	0.123597	0.538945	0.558977	0.648929	0.838975	0.923214	0.855438	0.726116	0.592406	0.29001	0.0564352	-0.274576	-0.697193	-0.934699	-1.24604	-1.40239	-1.42973	-1.32261	-1.15195	-0.94209	-0.827518	-0.712493	-0.49799	-0.251238	-0.0397375	0.0794871	0.228292	0.333839	0.545821	0.672477	0.794254	0.791752	0.862421	0.901368	1.03921	1.22428	1.4372	1.627	1.75979	1.93446	2.09819	2.39028	2.62031	2.83833	3.13327	3.37863	3.71359	4.0558	4.52063	5.07585	5.56256	6.08845	6.65746	7.38569	8.18079	8.91893	9.48388	10.0729	10.6313	11.1667	11.7617	12.4216	12.979	13.5687	14.4124	15.3143	16.3452	17.3574	18.5445	19.6897	20.7654	21.8238	22.9422	24.0129	24.9786	25.9469	26.9217	28.0344	29.2445	30.4744	31.3614	32.6038	34.0209	35.7333	37.6357	39.5878	41.7634	43.8401	46.0064	48.1796	50.3988	52.6034	54.7042	56.0588	57.2947	57.8443	58.371	58.8389	59.2177	59.8815	61.9856	63.8473	65.6956	65.0848	65.9464	67.3059	67.2698	67.7467	68.0298	68.1361	68.0801	67.9063	67.6183	67.245	66.6982	66.1103	65.3773	64.6301	63.849	63.0111	62.1829	61.2445	60.1523	59.0794	57.9202	56.6875	55.3435	54.0179	52.644	51.3418	50.0291	48.6702	47.4788	46.3438	45.3435	44.4204	43.5676	42.7849	42.031	41.2787	40.5145	39.7363	38.8466	37.9462	37.051	36.0152	34.8047	33.7193	32.7097	31.6294	30.6295	29.5903	28.644	27.7391	26.7158	25.9183	25.1299	24.6027	23.9326	23.2175	22.4902	21.8331	21.0735	20.212	19.3894	17.9548	17.1404	16.7714	16.5226	16.4882	16.6033	16.8844	17.3738	18.0844	19.178	20.2156	21.3038	22.1954	22.9335	23.4947	23.7908	23.7632	24.1255	24.1157	24.4368	24.2127	23.9925	23.768	23.2763	23.2967	23.6033	24.2459	26.0632	27.4235	29.9103	32.837	36.7412	42.2848	50.4242	60.483	72.2163	87.2057	105.843	130.558	159.878	194.285	213.521	224.997	214.03	189.887	157.858	121.896	100.459	79.6722	65.1528	53.5568	42.8849	36.6096	32.7044	27.8814	24.4085	21.8492	19.8384	18.6386	17.1327	13.5072	12.1111	11.3167	10.1298	9.33636	8.62775	8.05856	7.6047	7.24654	7.08276	6.8263	6.63563	6.32081	5.96621	5.69803	5.47152	5.19612	4.82574	4.6436	4.56494	4.53693	4.64346	4.73112	4.69625	4.50501	4.22678	4.1045	3.87417	3.64528	3.52492	3.43063	3.33973	3.23828	3.14326	3.02278	2.93457	2.79855	2.67605	2.6455	2.60163	2.54925	2.52657	2.47197	2.42617	2.40063	2.26586	2.16178	1.94891	1.9983	1.98674	1.95207	1.58212	1.17891	0.709382	0.283208	-0.271675	-0.950909	-1.77976	-1.85849	-1.73772	-1.59908	-1.20435	-0.775221	-0.126178	-0.0470444	-0.296254	-0.301344	-0.168609	-0.226342	-0.16096	0.000522318	0.112502	0.255464	0.428596	0.589517	0.683552	0.769378	0.831808	0.835766	0.728628	0.61798	0.520948	0.389873	0.270908	0.180529	0.18673	0.282177	0.368658	0.433204	0.539239	0.655118	0.758977	0.899959	1.00994	1.10594	1.18057	1.19403	1.15891	1.17058	1.18296	1.21265	1.24364	1.27546	1.23662	1.05114	0.881152	0.77189	0.628879	0.550209	0.567933	0.60614	0.800831	0.782439	0.726352	0.627342	0.550053	0.608161	0.656379	0.628683	0.604755	0.622018	0.647627	0.74701	0.812718	0.886501	0.968285	0.988561	0.94637	0.942375	0.872528	0.709462	0.610739	0.423772	0.368901	0.214293	0.123022	0.137692	0.123038	0.136907	0.190445	0.180357	0.114293	0.254914	0.27939	0.168577	0.0607134	-0.533829	-0.656312	-0.745414	-0.872266	-1.03378	-1.10514	-1.0914	-1.06953	-1.07564	-0.973523	-0.877145	-0.713945	-0.507923	-0.28878	-0.0552972	0.0952172	0.409101	0.769419	1.08491	1.41645	1.77615	1.9848	2.16757	2.33176	2.51704	2.69209	2.68687	2.59265	2.42579	2.21016	1.85173	1.42993	1.00469	0.641887	0.447784	0.335	0.158919	0.0529281	-0.0133695	-0.0938329	-0.0910285	-0.0661227	0.00539194	-0.0311179	-0.0233321	-0.0516399	-0.0556121	-0.108039	-0.106133	-0.188688	-0.27803	-0.327977	-0.237001	-0.160038	-0.168583	-0.204232	-0.449101	-0.59917	-0.729869	-0.755106	-0.722753	-0.775822	-0.694434	-0.597533	-0.389888	-0.193177	-0.0569381	0.0704688	0.217631	0.3194	0.472189	0.511644	0.504059	0.314658	0.0459805	-0.043551	-0.0132072	0.0853391	0.188962	0.381592	0.661234	0.928421	1.16312	1.37424	1.56268	1.70808	1.84189	2.06792	2.27876	2.3714	2.46338	2.52323	2.57124	2.4684	2.42767	2.4343	2.53307	2.52063	2.5359	2.65853	2.82195	2.96552	3.0719	3.07917	3.11589	3.1824	3.43948	3.50083	3.52686	3.59161	3.52575	3.43909	3.28415	3.05204	2.89085	2.74435	2.52594	1.8001	2.44253	3.0268	3.50213	3.71918	3.37623	3.02174	3.35087	3.40233	3.854	4.458	4.23388	3.85208	3.81273	3.9092	4.82186	5.27247	5.05326	5.17639	5.40354	5.64851	5.8867	6.06495	6.18177	6.24499	6.5455	6.65711	6.90517	7.052	7.14857	7.23759	7.35629	7.37338	7.17919	7.06157	7.0311	7.12527	7.61946	8.22105	8.73264	9.41641	10.1511	10.9258	11.6242	12.3209	13.0295	13.5075	14.1885	14.8379	15.3298	15.7182	16.0801	16.5354	16.9117	17.3997	17.917	18.6351	19.4687	20.1981	20.7521	21.1482	21.4775	21.6979	22.0713	22.491	22.9998	23.4888	24.1474	24.9082	25.5632	26.1989	26.9544	27.6961	28.347	28.9494	29.3548	29.7442	29.9458	30.0609	30.1381	30.2254	30.1956	30.3696	30.7118	30.9946	31.4292	31.8977	32.4346	32.8986	33.1351	33.212	33.0562	32.0757	30.3526	28.7593	26.4545	24.3144	22.0769	20.1833	18.6096	18.5061	18.0009	17.7894	17.6111	17.5978	17.5259	17.7573	17.9711	18.0822	18.3418	18.6274	18.7998	18.8207	18.6066	18.1614	17.6319	16.9952	16.2101	15.2903	14.2624	13.1762	11.9955	10.8914	9.70575	8.60642	7.5035	6.44019	5.36517	4.36885	3.38214	2.38397	1.61146	1.18016	0.661095	0.323669	0.317621	0.241216	0.188493	0.152793	0.131737	0.167999	0.167907	0.148879	0.125856	0.0899387	-0.0756563	-0.300815	-0.511286	-0.668395	-0.872408	-0.909095	-0.846251	-0.621057	-0.421344	-0.0947276	0.126045	0.135207	0.215176	0.265656	0.418102	0.645143	0.699507	0.635052	0.519751	0.381065	0.473299	0.68352	0.791238	0.895477	0.930079	1.00978	0.918122	0.836946	0.73438	0.65733	0.546222	0.384136	0.210009	0.0642234	0.127727	0.0119131	-0.106022	-0.187231	-0.165819	-0.199865	-0.0439622	-0.00378173	-0.166615	-0.425809	-0.551434	-0.461888	-0.471654	-0.384333	-0.394233	-0.348294	-0.38323	-0.305778	-0.185623	0.0734334	0.290163	0.756747	0.809964	0.730065	0.427848	-0.0492092	-0.35806	-0.644773	-0.951847	-1.08718	-1.18613	-0.974084	-0.894448	-0.432501	-0.235473	-0.0148588	0.198089	0.292588	0.360082	0.325035	0.466311	0.382659	0.302645	0.222823	0.160557	0.152979	0.20713	0.399161	0.706043	1.15025	1.83802	2.63341	3.52449	4.64456	5.69789	6.454	7.34691	7.87441	8.4149
