Acq. time (s)=	4
Accumulations=	3
Range=	Off
Autofocus=	Off
SWIFT=	Off
AutoExposure=	Off
Spike filter=	Multiple accum.
Delay time (s)=	0
Binning=	1
Readout mode=	Signal
DeNoise=	Standard
ICS correction=	On
Dark correction=	Off
Inst. Process=	On
Instrument=	LabRAM S3000
Detector=	Synapse
Objective=	x100
Grating=	1800
ND Filter=	25%
Laser (nm)=	632.81 
Spectro (cm-¹)=	520.984
Slit=	100.021
Hole=	1000.03
Microscope=	Principal
StageXY=	Märzhauser
StageZ=	Märzhauser
X (µm)=	-20
Y (µm)=	-20.1
Z (µm)=	-2220
Project=	
Sample=	
Site=	
Title=	SOP_200nm_SPIS_p0.20_map
Remark=	
Date=	17.06.2019 14:03
Operator=	
Acquired=	17.06.2019 14:03:40
Base:Sub=	17.06.2019 14:05:29
		358.033	358.357	358.684	359.008	359.333	359.659	359.983	360.309	360.634	360.959	361.285	361.609	361.934	362.26	362.584	362.908	363.233	363.559	363.883	364.208	364.533	364.858	365.182	365.507	365.832	366.157	366.481	366.805	367.13	367.455	367.78	368.104	368.428	368.752	369.078	369.402	369.726	370.051	370.375	370.7	371.024	371.348	371.673	371.997	372.321	372.645	372.969	373.294	373.618	373.942	374.266	374.59	374.914	375.238	375.562	375.886	376.21	376.534	376.858	377.182	377.505	377.829	378.153	378.477	378.801	379.124	379.448	379.772	380.096	380.419	380.743	381.067	381.391	381.714	382.038	382.362	382.685	383.009	383.332	383.656	383.98	384.302	384.625	384.949	385.272	385.596	385.919	386.243	386.566	386.888	387.212	387.535	387.859	388.182	388.504	388.827	389.151	389.474	389.797	390.119	390.443	390.766	391.089	391.412	391.734	392.057	392.381	392.704	393.026	393.349	393.672	393.994	394.317	394.64	394.963	395.285	395.608	395.931	396.253	396.576	396.899	397.22	397.543	397.865	398.188	398.511	398.832	399.155	399.478	399.8	400.122	400.444	400.767	401.088	401.411	401.734	402.055	402.378	402.699	403.022	403.344	403.666	403.988	404.31	404.632	404.954	405.276	405.598	405.919	406.242	406.563	406.886	407.207	407.53	407.851	408.173	408.494	408.815	409.138	409.459	409.782	410.103	410.424	410.746	411.067	411.39	411.71	412.031	412.354	412.675	412.996	413.318	413.639	413.96	414.282	414.603	414.924	415.246	415.567	415.888	416.208	416.531	416.851	417.172	417.494	417.815	418.136	418.456	418.779	419.099	419.42	419.741	420.061	420.383	420.704	421.024	421.345	421.665	421.986	422.308	422.629	422.949	423.27	423.59	423.91	424.232	424.553	424.873	425.194	425.514	425.834	426.155	426.475	426.795	427.116	427.436	427.756	428.078	428.398	428.719	429.039	429.359	429.679	430	430.32	430.64	430.96	431.28	431.6	431.921	432.241	432.561	432.881	433.201	433.52	433.84	434.16	434.48	434.8	435.12	435.44	435.76	436.08	436.4	436.719	437.038	437.358	437.678	437.998	438.317	438.637	438.957	439.276	439.595	439.915	440.235	440.555	440.873	441.193	441.512	441.832	442.152	442.47	442.79	443.109	443.429	443.747	444.067	444.387	444.706	445.024	445.344	445.663	445.982	446.301	446.621	446.939	447.258	447.578	447.896	448.215	448.534	448.852	449.172	449.491	449.809	450.129	450.448	450.766	451.085	451.403	451.722	452.042	452.36	452.679	452.997	453.316	453.634	453.953	454.271	454.59	454.908	455.227	455.544	455.863	456.181	456.5	456.818	457.137	457.455	457.774	458.091	458.41	458.728	459.047	459.364	459.683	460.001	460.318	460.637	460.955	461.274	461.591	461.909	462.228	462.545	462.862	463.181	463.499	463.817	464.135	464.452	464.771	465.088	465.405	465.723	466.041	466.359	466.676	466.995	467.312	467.629	467.946	468.265	468.582	468.899	469.216	469.535	469.852	470.169	470.486	470.805	471.122	471.439	471.756	472.073	472.391	472.708	473.025	473.342	473.659	473.976	474.293	474.611	474.928	475.245	475.562	475.879	476.196	476.513	476.83	477.146	477.463	477.781	478.098	478.415	478.732	479.048	479.365	479.682	479.999	480.315	480.632	480.949	481.265	481.582	481.898	482.215	482.532	482.848	483.165	483.481	483.798	484.114	484.429	484.746	485.062	485.379	485.695	486.012	486.328	486.645	486.961	487.277	487.592	487.909	488.225	488.542	488.858	489.174	489.489	489.805	490.122	490.438	490.754	491.07	491.385	491.701	492.018	492.334	492.648	492.965	493.281	493.597	493.912	494.228	494.544	494.86	495.175	495.491	495.807	496.121	496.437	496.753	497.069	497.384	497.7	498.016	498.33	498.646	498.961	499.277	499.592	499.907	500.223	500.539	500.853	501.169	501.483	501.799	502.113	502.429	502.745	503.059	503.375	503.689	504.005	504.319	504.635	504.949	505.265	505.579	505.895	506.209	506.524	506.838	507.154	507.468	507.784	508.098	508.413	508.727	509.042	509.357	509.671	509.987	510.301	510.616	510.93	511.244	511.559	511.873	512.187	512.503	512.816	513.132	513.446	513.76	514.075	514.389	514.703	515.016	515.332	515.645	515.959	516.274	516.588	516.902	517.216	517.531	517.844	518.158	518.472	518.787	519.101	519.414	519.728	520.043	520.357	520.67	520.984	521.297	521.612	521.926	522.239	522.553	522.866	523.18	523.493	523.808	524.122	524.435	524.748	525.062	525.375	525.689	526.002	526.315	526.629	526.943	527.257	527.57	527.883	528.197	528.51	528.823	529.136	529.45	529.763	530.076	530.389	530.703	531.016	531.329	531.642	531.955	532.268	532.581	532.894	533.206	533.519	533.832	534.145	534.458	534.771	535.084	535.397	535.71	536.023	536.335	536.648	536.961	537.273	537.586	537.899	538.212	538.524	538.836	539.149	539.462	539.775	540.086	540.399	540.712	541.025	541.336	541.649	541.961	542.274	542.585	542.898	543.211	543.523	543.835	544.147	544.46	544.771	545.084	545.396	545.709	546.02	546.332	546.645	546.956	547.268	547.58	547.892	548.204	548.516	548.828	549.14	549.451	549.764	550.075	550.387	550.698	551.01	551.323	551.634	551.946	552.257	552.569	552.88	553.192	553.503	553.815	554.126	554.438	554.749	555.061	555.372	555.684	555.995	556.307	556.618	556.928	557.24	557.551	557.863	558.174	558.486	558.797	559.107	559.419	559.73	560.042	560.352	560.663	560.975	561.285	561.596	561.908	562.218	562.529	562.84	563.151	563.461	563.773	564.083	564.394	564.704	565.016	565.326	565.637	565.947	566.259	566.569	566.879	567.19	567.501	567.811	568.122	568.432	568.742	569.054	569.364	569.674	569.984	570.294	570.604	570.915	571.226	571.536	571.846	572.156	572.466	572.776	573.086	573.396	573.708	574.018	574.328	574.638	574.948	575.258	575.568	575.878	576.187	576.497	576.807	577.117	577.427	577.737	578.047	578.356	578.666	578.976	579.286	579.596	579.905	580.215	580.525	580.834	581.144	581.452	581.762	582.072	582.381	582.691	583.001	583.31	583.62	583.93	584.238	584.547	584.857	585.166	585.476	585.785	586.095	586.403	586.712	587.022	587.331	587.641	587.949	588.258	588.568	588.877	589.185	589.494	589.804	590.113	590.421	590.73	591.039	591.347	591.657	591.966	592.275	592.583	592.892	593.201	593.509	593.818	594.128	594.435	594.744	595.052	595.361	595.67	595.978	596.287	596.596	596.904	597.213	597.521	597.83	598.137	598.446	598.755	599.063	599.372	599.679	599.988	600.296	600.605	600.912	601.221	601.528	601.837	602.145	602.453	602.761	603.07	603.377	603.684	603.993	604.301	604.609	604.917	605.225	605.533	605.84	606.149	606.456	606.763	607.072	607.379	607.688	607.995	608.302	608.611	608.918	609.225	609.533	609.841	610.148	610.455	610.763	611.07	611.377	611.686	611.993	612.3	612.607	612.915	613.222	613.529	613.836	614.145	614.452	614.759	615.065	615.372	615.681	615.988	616.294	616.601	616.908	617.215	617.522	617.83	618.137	618.443	618.75	619.057	619.364	619.67	619.977	620.284	620.592	620.899	621.205	621.512	621.819	622.125	622.432	622.738	623.045	623.352	623.658	623.965	624.271	624.578	624.884	625.191	625.497	625.804	626.11	626.417	626.723	627.03	627.336	627.641	627.947	628.254	628.56	628.867	629.173	629.479	629.786	630.092	630.398	630.703	631.009	631.316	631.622	631.928	632.234	632.539	632.845	633.151	633.458	633.764	634.068	634.375	634.681	634.987	635.292	635.598	635.904	636.21	636.514	636.82	637.126	637.432	637.737	638.043	638.349	638.654	638.96	639.265	639.57	639.876	640.182	640.486	640.792	641.097	641.402	641.708	642.013	642.319	642.624	642.929	643.234	643.539	643.845	644.149	644.455	644.759	645.065	645.37	645.675	645.98	646.285	646.59	646.894	647.2	647.504	647.81	648.114	648.42	648.724	649.028	649.333	649.638	649.943	650.247	650.553	650.857	651.161	651.466	651.77	652.076	652.38	652.684	652.989	653.293	653.597	653.902	654.206	654.51	654.815	655.119	655.423	655.729	656.032	656.336	656.641	656.945	657.249	657.553	657.858	658.162	658.466	658.769	659.074	659.378	659.682	659.986	660.289	660.594	660.898	661.202	661.505	661.809	662.114	662.418	662.721	663.025	663.328	663.632	663.935	664.239	664.544	664.847	665.151	665.454	665.758	666.061	666.365	666.668	666.972	667.275	667.578	667.882	668.185	668.489	668.792	669.095	669.398	669.702	670.005	670.308	670.612	670.915	671.218	671.521	671.825	672.128	672.431	672.734	673.037	673.341	673.644	673.947	674.249	674.552	674.855	675.158	675.461	675.764	676.067	676.369	676.672	676.975	677.278	677.581	677.884	678.185	678.488	678.791	679.094
-20	-20.0732	38.5989	36.5741	34.669	32.8993	31.5294	30.3317	29.1707	28.1196	27.1973	26.275	25.3127	24.3728	23.541	22.6935	21.818	20.9124	20.022	19.1584	18.1792	17.017	15.9943	14.9437	13.7979	12.7651	11.8777	10.9921	10.1948	9.53991	9.10553	8.73456	8.50394	8.21235	8.20943	8.13063	7.88628	7.58232	6.87855	6.26831	5.54825	4.98371	4.27031	3.55465	3.04291	2.3947	2.1933	2.33315	2.15696	2.00586	1.67645	1.09817	0.543378	-0.566191	-0.195887	-0.660943	-0.418174	0.112208	0.772849	1.58168	1.53656	1.31267	0.895875	-0.0684604	-0.495975	-0.834059	-0.746115	-0.39572	0.12811	0.282834	0.750403	0.870399	0.603643	0.529299	0.579731	0.487283	0.448891	0.264572	0.048094	-0.166111	-0.394754	-0.555178	-0.597973	-0.645012	-0.490394	-0.27922	-0.138414	0.0266899	0.498273	1.12599	1.88468	2.54424	3.21346	3.67678	4.03964	4.20781	4.32326	3.69357	3.37184	3.09451	2.94062	3.06922	2.96174	2.98429	3.06446	3.17351	3.30642	3.53253	3.66778	3.78764	3.92729	3.95949	4.06808	4.13327	4.33177	4.44515	4.5477	4.4927	4.52659	4.55534	4.6904	4.90123	5.0337	5.20345	5.26638	5.35949	5.39366	5.42845	5.52184	5.52499	5.47363	5.35124	5.35974	5.40261	5.24421	5.08414	4.9961	4.86587	4.85554	4.89313	5.0857	5.35381	5.47211	5.71842	5.93947	6.26437	6.56224	6.92648	7.25172	7.49799	7.92432	8.30587	8.73553	9.06873	9.3578	9.62882	9.76365	9.9367	10.2257	10.5274	10.8473	11.244	11.622	12.02	12.2419	12.6036	13.0376	13.5288	13.8185	14.0711	14.4231	14.6688	14.9762	15.1744	15.382	15.5013	15.7142	15.7816	15.8727	16.1069	16.4046	16.7708	17.0185	17.0924	17.0702	17.1805	17.1952	17.1413	17.02	16.7105	16.4111	16.1314	15.7555	15.2113	14.7535	14.2977	13.9896	13.7133	13.5268	13.375	13.311	13.5202	13.7162	14.0725	14.3726	14.5343	14.5851	14.6641	14.6816	14.71	14.5479	14.3657	13.8867	13.6003	13.4086	13.1533	12.9646	12.8573	12.7775	12.6623	12.4947	12.3476	12.1553	11.9524	11.8425	11.7195	11.6634	11.5551	11.3938	11.2651	11.1749	11.0575	10.8854	10.7468	10.5392	10.4021	10.1822	9.93565	9.63565	9.23903	8.85044	8.49768	8.21146	7.87621	7.55378	7.18012	7.02217	6.84014	6.53252	6.28688	5.95344	5.68058	5.35551	5.2046	5.02644	4.90369	4.83548	4.86104	4.90953	4.84934	4.76195	4.66001	4.65205	4.70473	4.84905	4.75144	4.70056	4.51715	4.27241	4.137	3.94456	3.80739	3.72659	3.8231	3.90695	4.17452	4.35805	4.58139	4.43807	4.40833	4.02913	3.15497	2.64972	2.22301	1.99018	1.77134	1.64845	1.46437	1.36587	1.31015	1.26734	1.61911	1.58402	1.59982	1.6198	1.65203	1.43205	1.23623	1.00237	0.649969	0.337697	0.0113191	-0.102634	-0.228504	-0.518797	-0.741769	-0.871208	-0.965559	-0.953309	-0.942585	-0.744698	-0.446888	-0.219532	0.0838414	0.33229	0.303055	0.228204	0.259764	0.259199	0.310573	0.408783	0.257125	0.20996	0.16913	0.122004	0.119737	0.277261	0.238068	0.265963	0.210447	0.226017	0.25901	0.362825	0.481424	0.660089	0.951124	1.52176	2.16267	2.82344	3.39627	3.81619	4.13181	4.48794	5.01432	5.08361	5.05749	4.94477	4.06237	4.1422	4.3233	4.76393	5.25002	6.5391	7.33269	7.88996	8.61809	9.06995	9.64179	9.8622	9.9896	10.2268	10.4561	11.3356	12.3488	13.3936	14.1835	14.8156	14.9211	16.4725	17.5906	18.8628	20.1905	21.5912	22.9706	24.3505	25.567	26.7754	27.9339	28.9717	30.1021	31.4747	32.81	34.377	35.9741	37.7114	39.4534	41.2625	43.1334	45.043	47.1585	49.3811	51.529	53.642	55.5812	57.1867	58.7351	60.2222	61.6695	62.8488	64.0239	64.8762	66.0681	67.4568	68.7869	70.0834	71.278	72.4254	73.3249	73.8427	74.2219	74.4309	74.4267	74.352	74.0791	73.7	73.2424	72.5509	71.6441	70.6726	69.6132	68.5047	67.3173	66.0989	64.7912	63.6149	62.2583	60.7602	59.6206	58.337	57.3574	56.3758	55.4688	54.5498	53.4246	52.4023	51.2894	50.2123	49.1351	47.9714	46.851	45.5537	44.2786	42.9689	41.8559	40.5032	39.0175	37.5325	35.8726	34.654	33.6258	32.5818	31.7328	31.1793	30.3678	29.6228	29.0043	28.2051	27.237	25.4565	24.256	23.0368	22.2031	21.4767	21.0846	20.9844	22.9498	23.0605	22.7633	22.0416	18.0621	16.6273	16.6357	16.7619	16.6195	16.7461	16.5864	16.5706	17.144	18.0816	18.9618	19.7789	20.6478	21.5464	22.0143	22.8642	23.5686	24.1515	24.5863	24.8468	25.092	25.8327	26.288	27.1028	27.8395	29.0645	30.718	33.2108	36.6196	41.2838	47.3052	55.8811	67.3362	80.7604	98.7539	127.929	146.21	177.108	209.074	235.639	231.751	208.49	179.078	147.41	122.322	99.062	79.798	64.7173	52.1697	42.7484	35.1867	29.4706	24.6908	21.3166	18.5059	16.5991	14.5233	13.2356	12.1831	11.1687	10.1154	9.28556	8.50391	8.00749	7.56436	7.286	6.83857	6.06758	5.63421	5.16059	4.90887	4.72009	4.5092	4.43761	4.44471	4.38203	4.33922	4.33386	4.24787	4.1211	4.05099	4.07049	4.0876	4.05596	4.03125	4.02223	3.9232	4.25845	4.09712	3.926	3.68156	3.27836	2.80447	2.26191	1.47391	0.838733	0.310453	-0.0859361	-0.321549	-0.413859	-0.411688	-0.130073	0.579771	0.990302	1.42107	1.77222	2.01719	2.19681	2.12029	2.01378	2.01508	1.85963	1.84864	1.67752	1.4637	1.15476	0.760994	0.314189	0.066708	-0.177971	-0.261033	-0.260065	-0.271276	-0.201577	-0.129404	-0.0527203	0.131369	0.150894	0.156578	0.245408	0.333699	0.466804	0.564403	0.51324	0.374987	0.0837153	-0.262974	-0.375178	-0.432809	-0.458378	-0.356231	-0.395035	-0.469499	-0.517845	-0.522611	-0.569028	-0.602111	-0.680039	-0.737625	-0.586606	-0.497795	-0.405176	-0.266015	-0.183341	-0.0620472	-0.0391074	0.0368569	0.128258	0.218257	0.316727	0.207052	0.259278	0.33125	0.347979	0.30105	0.181484	0.0503521	-0.0822076	-0.0258118	0.0431998	0.0698091	0.0860575	0.0460868	0.164396	0.301696	0.425502	0.582971	0.740786	0.886734	0.950616	1.02183	1.03117	1.11112	1.00215	0.687762	0.247493	0.0277926	-0.232177	-0.530044	-0.663229	-0.665975	-0.668514	-0.462611	-0.341827	-0.220373	-0.00763597	0.203935	0.495817	0.709163	1.08503	1.36914	1.44157	1.5331	1.44059	1.26434	1.22019	1.18809	1.08287	0.873731	0.794593	0.773838	0.869534	0.969843	0.839493	0.743153	0.632474	0.737755	0.753988	0.706942	0.610962	0.494045	0.251234	0.00778839	-0.469411	-0.537547	-0.387127	-0.220128	-0.0249231	0.321298	0.813138	1.09459	1.30884	1.40373	1.07434	1.14843	1.03909	0.809497	0.567809	0.387173	0.0736123	-0.153553	-0.301385	-0.351336	-0.316523	-0.381462	-0.285879	-0.33452	-0.336802	-0.586526	-0.606712	-0.539466	-0.53128	-0.43442	-0.304005	-0.174908	-0.0269071	-0.0352202	-0.134151	-0.518673	-0.667079	-0.69259	-0.569906	-0.179114	-0.0351566	0.114504	0.18977	0.138937	0.105518	0.0475902	0.0302053	0.0720663	0.113514	0.215271	0.338549	0.474219	0.632516	0.883729	1.01883	1.19321	1.34414	1.3312	1.4413	1.56066	1.71399	1.90166	1.98989	2.21495	2.80514	2.90645	2.85607	2.64453	2.3187	1.99632	1.86951	1.67483	1.62045	1.90624	2.60875	3.64443	4.15206	4.49587	4.44931	4.46434	3.6754	3.51328	3.33869	3.34578	3.33985	3.34773	3.55797	3.6338	3.7575	3.90181	4.19759	4.47746	4.66353	4.78176	4.91061	5.2211	5.2555	5.43024	6.043	7.44611	5.35357	3.42237	3.36341	3.34603	3.23986	3.48174	3.78786	4.16309	4.37791	4.83645	5.28497	5.78329	6.27335	7.11655	7.43587	7.786	7.60091	7.10733	6.77874	7.24783	7.7529	9.1992	8.47159	8.21721	7.86772	7.99121	8.22699	8.25558	8.26665	8.35547	8.47442	8.72186	9.00206	9.31691	9.77008	10.1532	10.4948	11.0174	11.5523	12.1806	12.7947	13.5756	14.283	14.9877	15.6915	16.4701	17.4507	18.0645	18.7165	19.2857	19.7109	20.2285	20.6288	21.0174	21.4332	21.6136	21.7944	22.2056	22.8073	23.4861	24.4348	25.5093	26.2757	26.7854	27.4032	27.9989	28.6476	29.2216	29.6117	30.141	30.5417	31.0487	31.4963	31.8086	31.9744	31.7084	31.7692	32.0539	32.1959	32.477	32.9583	33.2887	33.9227	34.47	35.2063	35.8438	36.4632	37.3165	37.0915	36.3179	34.8348	32.5774	29.7003	27.0723	24.6616	22.8625	21.3856	19.948	18.7563	17.832	17.8109	17.6103	17.6689	17.6385	17.7522	18.112	18.4505	18.8334	19.2965	19.7353	20.1214	20.5988	20.6144	20.2679	19.5948	18.7003	17.5711	16.5988	15.7516	14.5734	13.0886	11.7426	10.7407	9.27844	7.97265	6.69914	5.59749	4.59553	4.06118	3.47077	2.87437	2.30797	1.70847	0.840588	0.331634	-0.106174	-0.431559	-0.851196	-1.18643	-1.27122	-1.04349	-0.873174	-0.587394	-0.240332	-0.251761	-0.270965	-0.287066	-0.373079	-0.853254	-0.78162	-0.212541	-0.156375	-0.159373	-0.0101308	0.147868	0.444267	0.608484	0.640441	0.618051	0.659398	0.407856	0.273852	0.234252	0.269536	0.266487	0.265598	0.416969	0.509323	0.640633	0.732287	0.729066	0.735454	0.702319	0.702453	0.624989	0.447135	0.297624	0.0842483	-0.00542167	0.0921433	0.357083	0.333646	0.371962	0.349657	0.274186	0.128755	0.0789999	0.0515462	0.0752043	0.149763	0.119942	0.107086	0.129251	0.105966	0.156732	0.177517	0.226549	0.106919	0.0942054	0.122892	0.0887516	0.12509	0.139758	0.180488	0.076526	-0.0364266	0.0334799	-0.0971062	-0.0966897	-0.32881	-0.452545	-0.529084	-0.63455	-0.68425	-0.747627	-0.673911	-0.654254	-0.50078	-0.170961	0.186107	0.456727	0.747086	1.08176	1.36552	1.68354	2.10336	2.75346	3.27752	3.95212	4.56177	5.23078	5.70915	6.12015	6.53759
-20	-0.0366178	55.4583	54.8479	53.7502	52.5198	51.191	49.8291	48.2846	46.6763	45.0318	43.4974	41.9766	40.4774	38.8937	37.2828	35.6561	34.0523	32.4154	30.8162	29.3289	27.8901	26.5791	25.3223	24.1641	23.1206	22.1555	21.2456	20.427	19.6587	18.9017	18.1736	17.417	16.6794	15.9409	15.2173	14.4542	13.661	12.8879	12.1123	11.3877	10.6035	9.90579	9.23578	8.61911	8.02786	7.47801	6.88242	6.40371	5.96187	5.56869	5.22206	4.84691	4.49226	4.14979	3.77926	3.41648	3.07051	2.71953	2.38649	2.06166	1.74084	1.43686	1.13656	0.823916	0.506949	0.210727	-0.0615687	-0.30278	-0.367814	-0.401183	-0.390375	-0.35221	-0.291751	-0.269841	-0.178519	-0.0815998	0.0295048	0.131588	0.214251	0.289965	0.334871	0.371457	0.287668	0.203665	0.118566	0.00793134	-0.104594	-0.238426	-0.335314	-0.452898	-0.527535	-0.358248	-0.198746	-0.0885396	0.00338802	0.0832541	0.139854	0.190493	0.204629	0.211429	0.185557	0.158444	0.170795	0.135829	0.192468	0.362319	0.5609	0.715594	0.791058	0.842467	0.863293	0.886674	0.853588	0.797672	0.663132	0.638814	0.735317	0.808713	0.990801	1.18398	1.46377	1.79243	2.23332	2.50178	2.65889	2.69747	2.64076	2.44853	2.26637	2.12119	2.19959	2.44662	2.73686	3.0141	3.25636	3.3617	3.43091	3.44207	3.40322	3.39949	3.05505	4.00223	4.48301	4.7228	5.02968	5.15252	5.22178	5.27409	5.32539	5.37625	5.4209	5.47511	5.46622	5.51979	5.65119	5.96469	6.38894	6.89397	7.4388	7.96908	8.61343	9.26033	9.77243	10.2866	10.8395	11.4175	12.0151	12.6368	13.3719	14.1245	14.7385	15.255	15.703	16.065	16.3608	16.5666	16.7084	16.7682	16.7265	16.6533	16.5626	16.3642	16.0838	15.656	15.1699	14.7432	14.3424	14.3049	14.3242	14.3682	14.3243	14.2637	14.2013	14.1125	14.1578	14.2361	14.3046	14.3539	14.3778	14.3675	14.357	14.2697	14.1335	13.9098	13.6752	13.4452	13.3195	13.1208	12.9237	12.7611	12.5834	12.4114	12.1952	11.9184	11.6607	11.4134	11.1594	11.0294	10.9939	10.9711	10.9513	10.8899	10.8564	10.8326	10.7316	10.2992	9.53927	9.15134	8.96859	9.02888	9.42996	9.60416	9.59606	8.91763	8.65278	8.41125	8.16501	7.92086	7.702	7.51859	7.37646	7.33046	7.32528	7.40089	7.516	7.3657	7.20323	6.99294	6.78899	6.52979	6.29482	6.08137	5.9105	5.81712	5.89584	5.84518	5.80145	5.8012	5.82887	5.85768	5.8295	5.76068	5.60138	5.38504	5.19238	5.01482	4.85666	4.72888	4.64805	4.58582	4.52216	4.48882	4.28749	4.07616	3.86209	3.63652	3.44585	3.29321	3.14258	2.98309	2.81552	2.53251	2.27535	2.02216	1.8197	1.69227	1.64109	1.59072	1.57705	1.55073	1.53936	1.35805	1.22297	1.19923	1.18369	1.11855	1.07019	1.02398	0.953491	0.814022	0.533563	0.330061	0.216472	0.102517	0.0994484	0.115842	0.131566	0.139374	0.15993	0.180586	0.0863813	0.0221569	-0.044675	-0.109836	-0.233481	-0.358007	-0.489508	-0.600604	-0.634852	-0.578676	-0.516465	-0.44249	-0.344265	-0.234091	-0.119937	0.00446371	0.137885	0.221323	0.357239	0.505539	0.678807	0.913491	1.14104	1.39912	1.68338	1.99025	2.28602	2.59694	2.86114	3.13245	3.4148	3.5914	3.76069	3.91214	4.06013	4.23658	4.45253	4.7096	5.03625	5.45724	5.86053	6.28679	6.66954	7.0674	7.69352	8.42497	9.16968	9.88973	10.556	11.0968	11.5212	11.9344	12.3555	12.8944	13.5694	14.3892	15.2035	16.0476	16.9225	17.8913	18.9497	20.1234	21.4712	23.1711	25.0231	26.8618	28.6121	30.3257	31.9769	33.6012	35.2782	36.9858	38.7103	40.2909	41.3586	42.7975	44.2425	45.6632	47.1201	48.6309	50.2085	52.0009	53.783	55.5202	57.1903	58.7448	60.2166	61.6309	62.9573	64.2558	65.528	66.6836	67.6218	68.4332	69.2083	69.849	70.3206	70.5702	70.8579	71.1327	71.3228	71.4114	71.4214	71.126	70.6353	70.1187	69.5365	68.9064	68.2154	67.505	66.7372	65.8993	65.0576	64.1738	63.2016	61.9849	60.6939	59.5723	58.5148	57.2653	55.9679	54.5995	53.2771	51.9903	50.6725	49.2755	47.8522	46.3725	44.9983	43.6461	42.342	41.1141	39.9426	38.825	37.6747	36.6008	35.5754	34.6003	33.7067	32.8172	31.8724	30.9926	30.1816	29.3505	28.4437	27.5492	26.7505	26.0093	25.3656	24.7748	24.1888	23.5728	22.9405	22.1687	21.3719	20.5946	19.8784	19.2281	18.67	18.1902	17.795	17.529	17.3613	17.2823	17.306	17.4854	17.8022	18.924	19.6694	20.4275	21.0819	21.5449	22.0414	22.2885	22.6414	23.5415	23.6762	23.9159	24.1004	24.5942	24.8331	25.467	26.3486	28.3167	29.9437	32.904	37.8653	42.9753	49.7557	57.9404	68.8375	83.3468	101.851	123.574	156.073	173.114	202.061	238.218	227.357	212.246	181.841	151.064	122.441	94.9139	74.4694	60.7809	51.0162	43.1178	37.1106	32.405	28.0928	25.0122	21.6814	19.0725	16.6918	14.7849	13.0646	11.5501	10.3722	9.26577	8.43742	7.78559	7.37666	7.06689	6.57617	6.13638	5.71499	5.27116	4.772	4.35973	3.97207	3.63069	3.30409	3.00404	2.73884	2.53509	2.39394	2.32406	2.31504	2.42739	2.59157	2.72761	2.75818	2.77827	2.79909	2.81165	2.82147	2.7905	2.78494	2.68379	2.5778	2.45297	2.38158	2.28254	2.20124	2.15695	2.0791	2.07416	2.09027	2.13217	2.18968	2.30555	2.31245	2.27218	2.07882	1.78515	1.47873	1.2775	1.10404	0.937679	0.84959	0.686962	0.561394	0.474254	0.455253	0.492846	0.573042	0.699264	0.824766	0.933127	0.995404	0.925052	0.788636	0.658597	0.466055	0.283051	0.129265	-0.0121946	-0.146979	-0.267646	-0.360948	-0.463104	-0.452561	-0.425626	-0.391806	-0.354863	-0.32556	-0.348693	-0.385691	-0.43684	-0.536054	-0.638548	-0.76145	-0.828974	-0.76001	-0.749562	-0.723987	-0.676428	-0.668748	-0.630381	-0.591448	-0.535823	-0.321524	-0.17474	-0.0198119	0.116348	0.252964	0.378149	0.491229	0.588341	0.666922	0.753588	0.822733	0.910481	0.979203	1.0284	1.07422	1.10176	1.12325	1.1317	1.14974	1.15296	1.17617	1.11922	1.29297	1.62515	1.58409	1.4617	1.31654	1.19462	1.10686	1.05425	1.06423	1.09833	1.49054	1.52219	1.38498	1.3791	1.39852	1.46125	1.55282	1.6461	1.67806	1.69188	1.56308	1.45706	1.31965	1.20514	1.10639	0.962155	0.672103	0.39188	0.143917	0.0319466	-0.0289708	-0.0650125	-0.0999402	-0.101668	-0.111821	-0.0444651	-0.0109022	-0.000347472	-0.00456741	-0.0634425	-0.121188	-0.141821	-0.153842	-0.179771	-0.203176	-0.180085	-0.00744468	0.233875	0.594094	1.102	1.50357	1.84591	2.05296	2.22993	2.3305	2.36832	2.24117	2.03708	1.82687	1.62022	1.40471	1.0794	0.878299	0.700284	0.620736	0.562272	0.528401	0.489507	0.466584	0.447407	0.434342	0.390805	0.336545	0.280991	0.178358	0.0604975	-0.125767	-0.272915	-0.29862	-0.398403	-0.486553	-0.504048	-0.509359	-0.503869	-0.503073	-0.489909	-0.487013	-0.453715	-0.424622	-0.38819	-0.372979	-0.365538	-0.326394	-0.25497	-0.184333	-0.116532	-0.0935721	-0.0403793	-0.0243399	0.197938	0.405342	0.64637	0.824999	0.967035	1.08964	1.16345	1.1908	1.20557	1.20975	1.21752	1.3379	1.51397	1.71038	2.03888	2.12137	2.10279	2.10247	2.09289	2.10107	2.1132	2.08878	2.01034	1.7112	1.41303	1.34826	1.08568	1.08534	1.19498	1.38614	1.65259	2.03811	2.65553	3.05557	3.34531	3.56829	3.76978	3.92084	4.01711	3.98476	3.87209	3.71166	3.55434	3.40658	3.26133	3.15107	3.03492	2.93129	2.78054	2.76614	2.95369	3.19824	3.46838	3.73758	3.99151	4.25983	4.58163	4.89586	5.1862	5.38094	5.45965	5.43792	5.52289	5.78358	5.65021	5.46682	5.39114	5.2932	5.35632	5.47907	5.71845	5.99725	6.29938	6.62981	6.87914	7.1125	7.32002	7.48869	7.64573	7.82519	8.06769	8.37857	8.75174	9.21511	9.71939	10.2597	10.7125	11.2545	11.8498	12.4434	13.2064	13.8734	14.5612	15.3107	16.028	16.6903	17.2464	17.7705	18.3103	18.8615	19.5137	20.1624	20.7885	21.3789	21.8684	22.3215	22.863	23.4224	24.0882	24.7579	25.4841	26.181	26.8215	27.3773	27.8021	28.1628	28.4153	28.5849	28.8958	29.035	29.1197	29.0735	28.9478	28.7082	28.6375	28.4762	28.5985	29.2724	30.0856	31.0711	32.0454	33.5907	34.7862	35.6098	35.8049	35.4664	34.6199	33.2154	31.3021	28.7566	25.6181	23.1306	21.1034	19.3839	17.7976	16.5244	15.325	14.5038	14.6224	14.4991	14.6074	14.9842	15.7544	16.5599	17.3984	18.2268	18.9877	19.6329	20.1172	20.4071	20.4052	20.1205	19.5006	18.4319	17.4563	16.0735	14.6198	13.0951	11.4496	9.79657	8.22365	6.71463	5.26546	4.02527	2.9447	2.08462	1.39132	0.898168	0.545673	0.297666	0.10629	0.00778186	-0.0884342	-0.194209	-0.300214	-0.383525	-0.428261	-0.463111	-0.487903	-0.485955	-0.449188	-0.375178	-0.188268	0.00313259	0.149585	0.28897	0.392308	0.117707	0.157777	0.132003	0.0927485	0.049775	0.00675017	-0.0381623	-0.0840097	-0.129309	-0.133884	-0.1373	-0.123256	-0.0658691	-0.0296222	0.0386561	0.102655	0.155912	0.152829	0.178871	0.193058	0.1886	0.172247	0.119739	0.0690032	0.0298907	-0.0328935	-0.0934843	-0.162633	-0.191301	-0.195627	-0.179924	-0.0858968	-0.00620593	0.0799479	0.186743	0.333582	0.479018	0.59856	0.67122	0.640752	0.576786	0.496393	0.385099	0.262085	0.142183	0.0409876	0.045764	0.0594064	0.091119	0.132637	0.162334	0.186921	0.162788	0.0409898	-0.0877551	-0.242316	-0.359445	-0.485928	-0.592789	-0.640748	-0.620608	-0.506635	-0.367862	-0.23634	0.0101293	0.208177	0.451812	0.688943	0.947091	1.24224	1.55134	1.87528	2.20755	2.50451	2.768	3.0465	3.36702	3.77595	4.18172	4.58738	4.91182	5.49726	6.07855	6.70683	7.32138
-20	20	60.5732	58.2183	55.8342	53.5609	51.367	49.3105	47.3876	45.6619	43.9099	42.2072	40.5683	38.975	37.3614	35.7225	34.1786	32.7319	31.3965	30.1573	28.9913	27.8177	26.6505	25.5166	24.3875	23.3016	22.1728	21.0198	19.8835	18.6885	17.3538	15.905	14.7016	13.6808	12.7599	11.9574	11.2712	10.7034	10.2355	9.85903	9.48368	9.09417	8.70117	8.02107	7.67041	7.07969	6.46042	5.8092	5.17585	4.55819	3.92799	3.34168	2.86869	2.48669	2.08175	1.72456	1.42892	1.191	1.02294	0.931944	0.893732	0.777443	0.644846	0.510677	0.373326	0.212912	0.0464323	-0.138201	-0.2903	-0.422647	-0.546867	-0.646709	-0.718902	-0.773043	-0.799065	-0.767709	-0.655998	-0.499671	-0.247312	0.0102709	0.333206	0.591579	0.781627	0.905329	0.882417	0.858233	0.716927	0.546511	0.33387	0.140204	-0.0441543	-0.204489	-0.282381	-0.313233	-0.273071	-0.126261	0.090643	0.355435	0.688444	1.01774	1.46452	1.88757	2.25456	2.51668	2.69127	2.73352	2.71172	2.70966	2.79631	2.91089	2.98219	3.0375	3.11239	3.19684	3.30118	3.40942	3.60364	3.79807	4.0322	4.30933	4.4947	4.51634	4.51747	4.38008	4.50368	4.60429	4.99977	5.23803	5.79438	6.74558	6.06823	5.73392	5.8729	6.13661	6.25153	6.56019	6.61455	6.92915	7.22072	7.50616	7.797	8.07181	8.1424	8.29527	8.49182	8.66446	8.77058	8.81407	8.86032	8.98463	9.2813	9.60609	9.93124	10.2686	10.6922	11.1	11.4622	11.8627	12.2661	12.7504	13.2143	13.6326	13.9815	14.3328	14.6953	15.0886	15.493	15.8966	16.3457	16.793	17.2234	17.6006	17.9583	18.2752	18.5888	18.9533	19.2971	19.6467	19.9626	20.3435	20.7049	21.0134	21.2107	21.3199	21.3096	21.1661	20.8795	20.3815	19.9048	19.3448	18.8457	18.3858	18.1202	17.9561	17.8999	17.8351	17.8626	17.8157	17.8525	17.9959	18.174	18.3147	18.3699	18.3486	18.238	18.1413	18.0338	17.9566	17.868	17.7806	17.7017	17.5492	17.3648	17.195	16.9947	16.813	16.6319	16.4314	16.2818	16.2524	16.2363	16.2206	16.129	16.0302	15.855	15.5438	15.1277	14.7131	14.2897	13.8919	13.4716	13.0197	12.5901	12.2121	11.9086	11.6493	11.4154	11.2403	11.1683	11.1674	11.1671	11.1384	11.1266	11.0599	10.7847	10.4295	10.0335	9.70573	9.38608	9.13799	8.91554	8.70721	8.48018	8.30406	8.17325	8.12214	8.05545	7.989	7.92445	7.66709	7.37356	7.1331	7.02878	6.85909	6.72223	6.55914	6.43334	6.29746	6.30641	6.42882	6.59418	6.70314	6.77174	6.74819	6.64251	6.48084	6.20839	5.96101	5.75073	5.56118	5.40369	5.19999	5.01589	4.72577	4.44883	4.14709	3.8248	3.52513	3.30947	3.08774	2.85698	2.61941	2.36882	2.067	1.75877	1.25291	1.02461	0.797998	0.609483	0.577615	0.57099	0.553718	0.624969	0.667289	0.673233	0.602126	0.537833	0.427327	0.567738	0.644343	0.702126	0.513836	0.270633	0.0691215	-0.132347	-0.320408	-0.603948	-0.818573	-1.05866	-1.24191	-1.29972	-1.19549	-0.764778	-0.702178	-0.687113	-0.702113	-0.602618	-0.430834	-0.227001	0.00332219	0.27004	0.516823	0.659223	0.769517	0.94568	1.08781	1.16296	1.20188	1.3399	1.4869	1.69316	1.91593	2.10486	2.39559	2.72072	3.03791	3.36713	3.70363	4.02106	4.3722	4.63077	4.80465	4.98551	5.19647	5.43235	5.6802	6.09426	6.57518	7.13587	7.757	8.45463	9.18192	9.93548	10.7213	11.5173	12.3324	13.1602	14.011	14.9207	15.8774	16.8833	17.9817	19.1892	20.5442	21.9657	23.482	25.1582	26.6293	28.1022	29.6663	31.2656	32.9618	34.6188	36.3564	38.0456	39.6206	41.2005	42.6781	44.2032	45.6802	47.2281	48.8241	49.9231	51.229	52.8729	54.5643	56.2143	57.8083	59.4391	60.9529	62.3818	63.7113	64.7623	65.6439	66.3987	67.0666	67.6488	68.0647	68.0944	67.9479	67.9839	67.9839	68.0045	68.0439	68.0492	67.9375	67.6794	67.4432	66.9943	66.519	65.7699	64.9402	64.0513	63.035	61.921	60.7314	59.4487	58.0868	56.6473	55.4021	54.1062	52.761	51.359	49.9523	48.654	47.4024	45.9797	44.4323	42.8655	41.5062	40.1802	38.7363	37.5392	36.4246	35.354	34.2859	33.3031	32.3609	31.4945	30.7264	30.0705	29.265	28.6502	27.8745	27.0095	25.7517	24.7698	23.8629	23.0818	22.2028	21.6101	21.012	20.2329	19.2924	18.5232	17.3567	16.2969	15.3602	14.6335	14.1966	14.6897	14.8821	15.1211	15.3196	15.5374	15.8148	16.2631	16.8602	17.537	18.1743	19.0626	19.8768	20.2374	20.722	21.0988	21.4854	21.4434	21.625	21.9032	22.0157	22.5207	22.5633	22.9934	23.7434	24.8714	26.7944	29.5311	33.5047	38.6601	46.0495	53.7799	63.8691	77.5451	93.0549	115.143	145.734	173.606	202.338	222.464	231.881	212.507	178.008	146.376	118.284	94.122	73.5215	58.0906	46.9363	39.203	33.4781	27.9212	24.8492	22.1055	18.9758	16.5189	14.4717	12.6328	11.0906	9.86643	8.69848	8.03041	7.25153	6.61997	6.13346	5.75895	5.40155	5.01395	4.54679	4.13442	3.77658	3.45526	3.21395	2.99713	2.87749	2.80422	2.77204	2.72422	2.61142	2.3789	2.18463	2.0568	1.93653	1.76776	1.47975	1.15296	0.946333	0.858452	0.75119	0.540026	0.282471	0.131492	-0.0755347	-0.263259	-0.302527	-0.210758	-0.0382925	-0.06013	-0.066246	-0.0839456	-0.0567334	-0.012348	0.00218517	0.0261455	0.0561346	0.0838149	0.102673	0.142386	0.172884	0.226517	0.285707	0.339661	0.412051	0.443792	0.453901	0.452223	0.429729	0.360745	0.297967	0.174599	0.030762	-0.147266	-0.362273	-0.55816	-0.771307	-1.01124	-1.22313	-1.3647	-1.47995	-1.42996	-1.23971	-0.990296	-0.643184	-0.31851	-0.0124689	0.224893	0.426309	0.603925	0.743194	0.845105	0.78184	0.719574	0.580049	0.446272	0.220887	0.212258	0.375398	0.419515	0.435102	0.55758	0.669577	0.7438	0.784271	0.805294	0.746395	0.475292	0.394266	0.307037	0.206301	0.0635078	-0.104579	-0.255795	-0.316485	-0.344493	-0.377528	-0.387266	-0.313446	-0.189465	-0.033381	0.187231	0.313937	0.417066	0.50187	0.458208	0.391962	0.297075	0.168897	0.0241266	-0.1215	-0.150441	-0.0630015	0.144962	0.320175	0.494875	0.683371	0.895776	1.10315	1.36337	1.59141	1.80266	1.92858	2.05683	1.9798	1.88342	1.71838	1.46884	1.19492	0.918074	0.66523	0.468675	0.309715	0.177646	0.0974955	0.0830289	0.13297	0.270168	0.511553	0.922063	1.31842	1.60664	1.82042	2.07095	2.20211	2.19382	2.09172	1.65453	1.22036	0.808897	0.479727	0.188267	-0.0364277	-0.21098	-0.312941	-0.336879	-0.308327	-0.168726	0.0150555	0.24035	0.471396	0.665659	0.835805	0.98648	1.11919	1.21005	1.26566	1.24374	1.14562	0.913953	0.651736	0.331191	0.00404055	-0.299757	-0.578077	-0.798933	-0.978891	-1.05168	-1.22679	-1.33629	-1.34966	-1.2826	-1.14532	-0.949881	-0.74416	-0.5266	-0.357285	-0.229647	-0.198995	-0.179621	-0.168906	-0.152906	-0.0787923	-0.0113387	0.0960087	0.28144	0.163684	-0.117892	-0.461316	-0.777951	-1.06955	-1.26262	-1.1826	-0.875977	-0.262584	0.322814	0.56564	0.520498	0.73487	1.07514	1.42388	1.69709	1.87777	2.00303	2.04613	2.01004	1.91201	1.74278	1.688	1.74483	1.76489	2.08033	1.95989	1.84116	1.70598	1.56834	1.57129	1.7755	1.85671	2.35026	2.8566	3.20674	3.37004	3.28976	2.85055	2.45618	1.81644	2.17671	1.94807	1.64468	1.39694	1.19616	1.03556	0.992668	0.958041	0.981878	1.04685	1.10508	1.22721	1.41358	1.60533	1.76987	1.92965	2.06276	2.1589	2.15327	2.14959	2.12146	2.09858	2.07621	2.07399	2.11193	2.18267	2.22943	2.34748	2.54759	2.78512	3.06042	3.36769	3.71324	4.10174	4.41341	4.71156	4.71053	4.65058	4.54283	4.41768	4.26596	4.32683	4.40717	4.55579	4.79003	5.11663	5.6665	5.95103	6.07595	6.35645	6.84029	7.3033	7.94913	8.75112	9.43978	10.021	10.488	10.5777	11.0598	11.5175	12.1691	12.7198	13.0196	13.3773	13.777	14.2075	14.6557	15.2029	15.8947	16.6562	17.528	18.4821	19.3901	20.2099	20.945	21.6086	22.2357	22.878	23.4986	24.1123	24.6892	25.2538	25.7297	26.3127	26.8282	27.3373	27.8289	28.2367	28.4598	28.5141	28.4947	28.3859	28.2536	28.0288	27.8251	27.5962	27.3985	26.0112	26.5929	27.5446	29.8289	31.3372	32.7858	33.7615	34.2693	34.8947	35.0005	33.5929	31.6349	29.1564	25.6299	23.2473	20.8988	18.7885	17.1811	16.5506	16.6628	16.5361	16.5881	16.1365	16.1961	16.4146	16.8439	17.2743	17.6561	17.9591	18.0998	18.1676	18.0996	17.7339	17.2355	16.631	15.9925	15.249	14.3527	13.3879	12.3743	11.3298	10.3748	9.33388	8.30488	7.30425	6.36102	5.47739	4.6653	4.02165	3.50874	3.01372	2.50142	1.98571	1.55255	1.1754	0.965984	0.855713	0.724563	0.568757	0.389725	0.18238	-0.0810205	-0.325154	-0.549551	-0.726026	-0.854279	-0.922088	-0.946695	-0.915475	-0.829153	-0.707469	-0.57052	-0.405315	-0.187012	0.131786	0.488968	0.762778	0.827306	0.684188	0.488358	0.280952	0.132389	0.0787764	0.0603802	-0.00122442	-0.00026434	0.0570198	0.174162	0.679554	0.838995	0.994037	1.17086	1.35232	1.53602	1.59871	1.53788	1.43114	1.28114	1.08118	0.913376	0.680074	0.417997	0.165235	-0.0391172	-0.149306	-0.175062	-0.176516	-0.0754705	0.0914619	0.262694	0.455284	0.662119	0.879255	1.11241	1.31598	1.38563	1.41732	1.40953	1.36012	1.29377	1.16304	0.968867	0.796504	0.560431	-0.109709	-0.357398	-0.576646	-0.773823	-0.823363	-0.788047	-0.648834	-0.482993	-0.333007	-0.201291	-0.141436	-0.0805199	-0.035343	0.00283224	0.0327435	0.0600603	0.0746663	0.103093	0.123507	0.160568	0.209466	0.318393	0.450693	0.622665	0.854747	1.22632	1.66368	2.21365	2.89698	3.80227	4.73306
0	-20.0732	50.5501	48.0019	45.52	43.2239	41.2314	39.3845	37.6366	35.9716	34.4066	32.9512	31.5806	30.4182	29.345	28.3197	27.289	26.2709	25.2904	24.3157	23.3774	22.4652	21.5551	20.6661	19.7941	18.9374	18.0834	17.206	16.3328	15.4745	14.6542	13.8886	13.2631	12.6517	12.0331	11.3344	10.5776	9.83271	9.11388	8.40721	7.72127	7.05973	6.4198	5.82307	5.24584	4.68682	4.16201	3.66838	3.20527	2.77068	2.40435	2.08308	1.73046	1.4053	1.0803	0.717041	0.40432	0.188411	0.0436544	-0.0642451	-0.0714499	-0.0237012	0.0664343	0.184295	0.328247	0.444944	0.459159	0.470081	0.430423	0.285136	0.141136	-0.0261002	-0.193641	-0.378386	-0.527069	-0.699997	-0.835566	-0.943101	-0.926738	-0.867801	-0.754099	-0.572972	-0.373351	-0.169136	0.0297917	0.242056	0.441341	0.603194	0.742646	0.806889	0.845722	0.893615	0.914439	0.97755	1.04739	1.12179	1.21635	1.25896	1.30478	1.40178	1.63276	1.96336	2.32147	2.75592	3.19153	3.61983	4.01142	4.32328	4.56441	4.71825	4.80643	4.83619	4.82063	4.78065	4.67103	4.49253	4.33133	4.18289	4.07247	4.0962	4.13816	4.22325	4.36009	4.56779	4.84779	5.1526	5.52002	5.89036	6.24365	6.58353	6.81567	6.91762	6.9625	6.95023	6.89794	6.80331	6.71924	6.60266	6.48465	6.39066	6.34753	6.3518	6.4142	6.70047	7.07692	7.56778	8.12755	8.6816	9.22676	9.70948	10.1511	10.5753	10.9879	11.3644	11.7102	11.9918	12.2304	12.4031	12.5398	12.6443	12.7252	12.7638	12.8155	12.8849	13.0221	13.3954	13.8385	14.4262	15.1253	15.8825	16.6311	17.3629	18.0429	18.5869	19.0259	19.3425	19.631	19.9126	20.1349	20.3339	20.2668	20.1329	19.9375	19.7581	19.5531	19.3442	19.0666	18.7357	18.4025	18.0133	17.6077	17.2107	16.9539	16.5445	16.118	15.7952	15.7219	15.7739	15.9472	16.2209	16.5303	16.7529	16.8792	16.8996	16.7944	15.8359	16.016	15.7858	15.4281	15.087	14.7599	14.5083	14.2839	14.1214	14.0589	13.9823	13.9087	13.929	13.957	13.9843	13.9771	13.8817	13.7736	13.6488	13.5054	13.3332	13.1634	12.9788	12.7946	12.6104	12.5326	12.5468	12.5604	12.5555	12.4966	12.307	12.1068	11.8998	11.605	11.2212	10.8099	10.3673	9.94007	9.52471	9.12257	8.76444	8.46521	8.21327	8.12786	8.06475	8.03254	7.99682	7.96908	7.80651	7.6285	7.40784	7.18592	6.96438	6.74109	6.53293	6.34682	6.21465	6.11462	6.01401	5.97057	5.97077	5.98213	6.01857	6.06937	6.02659	5.91564	5.77348	5.59939	5.34885	5.09229	4.82433	4.54034	4.28249	4.06168	3.83424	3.55528	3.2824	2.9783	2.74609	2.61215	2.64259	2.60411	2.49381	2.3147	2.12955	1.98193	1.85224	1.75257	1.68707	1.65537	1.65686	1.69854	1.74424	1.81382	1.9258	2.00194	2.03002	1.96924	1.76383	1.50293	1.17545	0.738042	0.246675	0.0147873	-0.0825115	-0.0604342	0.550844	-0.175132	-0.231266	-1.204	-0.376347	-0.410741	-0.0142324	-0.16844	-0.0969633	-0.125427	-0.067834	0.001777	-0.00443121	-0.0288655	-0.0505291	-0.0612197	-0.0573168	-0.0390754	-0.0133305	0.040002	0.109844	0.200483	0.301137	0.430283	0.603642	0.782541	1.01123	1.25488	1.5225	1.78721	2.05492	2.32266	2.46114	2.66649	2.82456	2.9255	3.02717	3.06232	3.18642	3.38043	3.63827	3.92619	4.40887	4.98592	5.63049	6.33013	7.06061	7.79309	8.50747	9.16906	9.79056	10.3299	10.805	11.2752	11.7512	12.2558	12.8232	13.4475	14.138	14.9001	15.8203	16.8433	18.0242	19.2691	20.5775	21.8832	23.136	24.3774	25.6419	26.9525	28.1869	29.4291	30.7533	32.174	33.8133	35.6418	37.5454	39.4232	41.3042	43.2157	45.0662	46.9134	48.6878	50.4269	52.1457	53.856	55.6025	57.3414	59	60.332	61.3511	62.1163	62.757	63.2271	63.4499	63.6005	63.5837	63.4355	63.2187	62.9498	62.6412	62.308	61.9329	61.5666	61.1703	60.7826	60.4086	59.7663	59.022	58.1942	57.1997	56.4457	55.9182	55.5604	55.3989	55.2183	54.564	53.8491	53.042	52.1064	51.0678	50.0577	48.8297	47.029	44.9914	43.1482	41.4757	40.0738	38.9458	37.7358	36.5914	35.5313	34.5346	33.5822	32.6738	31.8335	31.2604	30.8161	30.2902	29.5498	28.7767	27.7236	26.5962	25.4551	24.3632	23.2887	22.2528	21.2613	20.326	19.4539	18.6672	17.9833	17.3927	16.8806	16.6059	16.1222	15.4889	14.8606	14.314	13.8575	13.5725	13.4568	13.4615	13.6436	13.9276	14.4473	15.0878	15.8036	16.5056	17.0038	17.5222	18.09	18.7233	19.3288	19.8903	20.4065	20.7949	21.0316	21.2141	21.3516	21.543	22.1248	22.1915	22.7242	23.9912	25.9492	28.7144	32.6175	39.4836	47.3126	58.3281	71.336	87.7483	109.541	133.036	159.336	185.682	203.553	207.58	192.958	163.356	132.539	105.83	82.1357	65.499	51.0447	41.725	35.2879	30.052	25.5197	21.6551	18.4796	16.0847	14.3404	13.0417	12.1035	11.2726	9.64364	8.86762	8.25059	7.28096	6.72704	6.35068	5.97411	5.6018	5.20866	4.79974	4.4033	4.00905	3.62834	3.29345	2.98554	2.66789	2.3652	2.08186	1.87146	1.68753	1.58127	1.60716	1.64224	1.64734	1.65018	1.64887	1.59145	1.42932	1.22335	1.02065	0.860925	0.888319	1.34413	1.86158	2.00706	2.04071	2.05787	2.05897	2.06778	2.04348	1.93994	1.8142	1.61823	1.39207	1.15352	0.942432	0.731188	0.559076	0.430229	0.352507	0.36838	0.41137	0.529561	0.679684	0.789488	0.738431	0.802758	0.896038	1.70432	0.935747	-0.17497	-0.585018	-0.414265	-0.339285	-0.26609	-0.213951	-0.131614	-0.0901557	-0.069858	-0.0724003	-0.126597	-0.203148	-0.289602	-0.2235	-0.0970663	0.0668783	0.228158	0.371837	0.527072	0.584019	0.5891	0.506996	0.31788	-0.0154442	-0.158179	-0.154461	-0.21386	-0.302362	-0.405787	-0.527906	-0.647682	-0.762376	-0.869969	-0.92386	-0.964759	-0.959524	-0.8885	-0.810965	-0.698644	-0.576167	-0.403206	-0.14527	0.104426	0.374274	0.685286	0.913823	1.10053	1.06307	0.957834	0.813374	0.658307	0.466021	0.253991	0.0716298	-0.00672463	-0.0545925	-0.0312119	0.0402448	0.0922432	0.194809	0.310844	0.45191	0.555944	0.606412	0.64951	0.694821	0.737841	0.781719	0.812898	0.853992	0.9238	0.990804	1.06336	1.14441	1.21682	1.26621	1.34155	1.32001	1.26009	1.17602	1.09367	0.97668	0.814323	0.635158	0.466958	0.323511	0.174436	0.106952	0.00355579	-0.0866539	-0.142973	-0.157129	-0.060069	0.0581201	0.173127	0.260398	0.262405	0.242562	0.211506	0.12116	-0.0236791	-0.169628	-0.327812	-0.423131	-0.497118	-0.516754	-0.461534	-0.342439	-0.149578	0.086691	0.321172	0.582428	0.869174	1.12638	1.33825	1.518	1.58856	1.60902	1.5591	1.44201	1.25868	1.03407	0.783803	0.471217	0.143476	-0.171126	-0.421042	-0.629931	-0.793032	-0.843729	-0.814317	-0.772841	-0.693662	-0.631745	-0.539405	-0.484797	-0.429897	-0.393512	-0.317076	-0.234563	-0.126483	0.0250004	0.090405	0.0845585	0.0682209	0.0345443	0.0504161	0.135492	0.247269	0.38274	0.527531	0.565188	0.503144	0.398914	0.399396	0.454653	0.55082	0.739323	0.895407	0.998234	1.11365	1.2089	1.28295	1.30017	1.28072	1.22846	1.16615	1.09323	1.03372	1.03286	1.10736	1.25491	1.40934	1.57247	1.75745	1.91662	2.04643	2.17379	2.31002	2.4659	2.68366	2.87547	2.92411	2.9271	2.84278	2.75485	2.64777	2.5455	2.41385	2.29795	2.1768	2.14607	2.08472	2.03477	2.00692	1.98482	2.08201	2.32622	2.58033	2.82016	3.0549	3.24551	3.431	3.5578	3.69011	3.77935	3.83516	3.84229	3.70521	3.57985	3.45168	3.45572	3.51263	3.61106	3.74098	3.88428	3.9919	4.07722	4.14568	4.19365	4.21729	4.23412	4.25659	4.36026	4.44402	4.54073	4.6538	4.82041	5.04533	5.30862	5.65821	6.04603	6.45688	6.88303	7.28463	7.70035	8.13146	8.57571	8.94703	9.34481	9.76892	10.1911	10.6622	11.1459	11.6016	11.957	12.1791	12.3844	12.6078	12.8517	13.1917	13.5927	14.1057	14.7223	15.5367	16.2991	16.9962	17.66	18.2789	18.839	19.3254	19.8127	20.2959	20.8115	21.3503	21.8091	22.1078	22.1156	23.1438	25.1182	25.3256	25.8072	26.1387	26.3605	26.4545	26.4414	26.3891	26.3125	26.2254	26.1497	25.9737	25.7737	26.0525	26.3171	26.7686	27.4841	28.2941	29.0798	29.645	29.9082	30.0337	29.9815	29.8888	28.866	27.5718	26.0555	24.3302	22.3319	20.3	18.5818	17.1711	16.0818	15.7854	15.8851	16.104	15.9457	15.7798	15.6916	15.7024	16.0499	16.5282	17.0007	17.4721	17.9884	18.451	18.8347	19.0008	18.8735	18.5304	17.816	16.7942	15.2527	13.9455	12.6569	11.3597	10.0131	8.69511	7.41293	6.18212	5.13863	4.23188	3.37006	2.60378	1.94057	1.46817	1.25955	0.925671	0.54783	0.149841	-0.220751	-0.517311	-0.748118	-0.847449	-0.879711	-0.849841	-0.767142	-0.65098	-0.529749	-0.474379	-0.398749	-0.39372	-0.183381	0.0881193	0.368439	0.624351	0.871052	1.08353	1.30282	1.46598	1.5804	1.62976	1.58616	1.49604	1.36282	1.19551	1.01793	0.845926	0.705629	0.665671	0.769131	0.910282	1.06322	1.16546	1.26577	1.34225	1.3809	1.38806	1.30469	1.19946	1.06312	0.879235	0.651908	0.423952	0.213365	0.0420046	-0.0908391	-0.182679	-0.176229	-0.150274	-0.0836707	0.00924727	0.0913989	0.163727	0.254827	0.323331	0.445406	0.537247	0.674694	0.818788	0.992007	0.944264	0.811805	0.579992	0.272143	0.0192671	-0.181735	-0.248693	-0.226753	-0.133519	0.00296912	0.154119	0.312855	-0.623382	-0.640459	-0.607228	-0.524271	-0.416066	-0.339529	-0.297639	-0.241816	-0.151897	-0.0694786	0.0521563	0.171569	0.323782	0.480235	0.648555	0.829858	0.95494	0.982712	0.867834	0.778896	0.678731	0.664005	0.793305	1.1725	1.88591	2.88359
0	-0.0366178	35.8759	34.5956	33.3454	32.1205	30.9411	29.7966	28.7244	27.6663	26.6266	25.5186	24.4986	23.5356	22.6133	21.702	20.8108	19.9142	19.0635	18.1894	17.3532	16.6177	15.8484	15.0801	14.2334	13.444	12.5016	11.5456	10.6966	9.91891	9.18734	8.53122	7.92638	7.33572	6.92598	6.57585	6.23899	5.70742	5.22469	4.63421	4.12695	3.67127	3.31309	3.01748	2.73733	2.46554	2.15567	1.87791	1.63888	1.30275	0.816948	0.537345	0.260078	0.0039047	-0.160653	-0.262211	-0.482119	-0.477774	-0.405999	-0.353527	-0.251714	-0.0981223	0.116098	0.345442	0.512454	0.572902	0.600289	0.61228	0.651485	0.743136	0.838016	0.947305	0.676228	0.376611	0.179262	-0.00764002	-0.163289	-0.288215	-0.445148	-0.537972	-0.566717	-0.642414	-0.732777	-0.731984	-0.650815	-0.503062	-0.289206	-0.0401303	0.215929	0.462678	0.708731	0.968656	1.22152	1.3145	1.36283	1.46354	1.51179	1.5857	1.69204	1.96	2.18819	2.37544	2.52768	2.73105	2.87747	3.03296	3.09795	3.15079	3.18437	3.25792	3.45175	3.70032	3.9654	4.22694	4.54274	4.90924	5.2325	5.50217	5.754	6.00635	6.23779	6.2803	6.23642	6.20091	6.037	5.88395	5.73162	5.61165	5.51249	5.41112	5.33688	5.27048	5.00268	4.88656	4.83266	4.82883	5.05627	5.71648	6.25921	6.74187	7.10452	7.5907	7.82788	7.68692	7.54385	7.3808	7.23205	7.24101	7.30813	7.44868	7.61569	7.96632	8.36185	8.83011	9.28438	9.59847	9.91444	10.2351	10.5644	10.9062	11.2607	11.6607	12.133	12.6129	13.1619	13.7312	14.3413	14.9781	15.6415	16.2794	16.9483	17.4097	17.6789	17.9131	18.0918	18.2398	18.3586	18.5137	18.5269	18.4939	18.4519	18.4682	18.4464	18.4213	18.3618	18.2812	18.1912	18.0237	17.7814	17.4132	16.947	16.4674	15.9891	15.5237	15.241	14.9931	14.788	14.6576	14.5903	14.5848	14.7259	14.9312	15.1809	15.4515	15.6177	15.7662	15.8871	15.9035	15.8958	15.8558	15.7368	15.3695	14.9881	14.7407	14.5996	14.5923	14.4066	14.1262	13.9106	13.6029	13.2827	12.9894	12.8594	12.7346	12.8135	12.9161	12.8156	12.2955	12.0486	11.8494	11.69	11.5744	11.4657	11.4316	11.3501	11.2088	11.0233	10.8314	10.6399	10.4514	10.2652	10.0792	9.89426	9.71771	9.53325	9.30046	9.0562	8.74135	8.53002	8.4485	8.46916	8.58683	8.64546	8.48807	8.28274	8.20079	7.94218	7.64115	7.26791	6.85317	6.38669	6.04967	5.79373	5.56208	5.43051	5.42969	5.37531	5.39429	5.49323	5.57393	5.5332	5.52175	5.53892	5.44143	5.32418	5.32552	5.13627	4.8346	4.59764	4.36261	4.18165	4.00041	3.87115	3.72901	3.64821	3.55808	3.46293	3.3783	3.28646	3.19645	2.9856	2.76069	2.56576	2.40947	2.21408	2.05554	1.77606	1.60573	1.53251	1.50199	1.57486	1.62058	1.72789	1.85298	1.98157	2.17359	2.27332	2.08338	1.71916	1.37287	0.864981	0.340279	0.00900267	-0.251829	-0.605037	-0.935031	-0.981224	-0.844761	-0.55422	-0.191441	0.129244	0.230188	0.278382	0.285394	-0.291688	-0.44906	-0.306661	-0.138103	0.0857942	0.3009	0.461516	0.698049	0.982854	1.35392	1.62993	1.99076	2.30791	2.61379	2.79728	2.91125	3.08039	3.22062	3.36921	3.4916	3.65276	3.77134	3.91299	4.07043	4.29284	4.44162	4.55857	4.69801	5.02565	5.67707	6.35326	7.05804	7.64977	8.12304	8.51454	9.09758	9.77729	10.478	11.1474	11.8199	12.6066	13.445	14.2948	15.1974	15.8793	16.8269	17.8353	18.8652	19.9358	21.0902	22.0049	22.958	23.955	25.0155	26.1683	27.4099	28.7235	30.116	31.569	33.1072	34.745	36.4748	38.2802	40.0801	41.8459	43.6462	45.0962	46.4324	47.9051	49.4542	51.0028	52.57	54.1326	55.601	57.0737	58.4284	59.5536	60.5777	61.375	62.1918	62.9096	63.6189	64.2298	64.6854	65.0168	65.4438	65.761	65.9265	65.8976	65.5106	65.2092	64.994	64.6051	64.1369	63.5286	62.9702	62.4176	61.8926	61.3304	60.7122	59.4352	58.1086	56.4364	54.3433	52.2745	50.3279	48.6811	47.2115	45.9423	44.8884	43.9206	43.0741	42.2785	41.5514	40.8833	40.2531	39.6629	39.0521	38.4196	37.7693	36.9832	36.0903	35.2302	34.3479	33.4654	32.5413	31.5679	30.5938	29.2096	28.0185	26.8665	25.724	24.8176	23.9955	23.263	22.5915	21.9639	21.4311	20.923	20.4293	19.9489	19.3621	18.8154	18.0615	17.3233	16.6376	16.1268	15.71	15.4214	15.1762	14.9929	14.9818	15.208	15.4743	16.0619	16.6115	17.3575	17.9815	18.6097	19.1449	19.7279	20.2707	20.8684	21.3757	21.6893	22.4016	22.5977	23.0899	23.5925	25.0204	25.9302	26.8839	28.6254	31.2285	34.8596	40.1268	46.9053	58.5322	71.5562	87.4153	107.726	128.689	154.136	176.86	198.862	200.712	188.361	160.557	129.697	105.034	84.0493	66.0841	54.5427	44.4073	37.2717	32.1117	27.5441	23.6317	20.4526	17.6294	15.4166	13.3827	11.7701	10.4718	9.45141	8.49905	7.46339	6.61303	5.9618	5.47211	5.29025	5.13828	5.0095	4.88716	4.81853	4.65463	4.64306	4.37468	4.01436	3.56079	2.9953	2.4735	1.90349	1.50123	1.29766	1.05153	0.825003	0.612432	0.397551	0.318068	0.334928	0.628137	0.698193	0.784866	0.848274	0.897203	0.940791	0.916253	0.805072	0.715002	0.496936	0.311618	0.261648	0.293599	0.289748	0.322839	0.326052	0.3375	0.289875	0.374749	0.554069	0.778556	0.714612	0.499948	0.316237	0.0956959	-0.121513	-0.408519	-0.673798	-0.941869	-1.15783	-1.32129	-1.45406	-1.54978	-1.5039	-1.34607	-1.17014	-0.869938	-0.547346	-0.193571	0.15563	0.345839	0.532042	0.651029	0.61356	0.597843	0.458992	0.309326	0.136013	-0.0168359	-0.223224	-0.432835	-0.620952	-0.734007	-0.669385	-0.554881	-0.431634	-0.276849	-0.139165	-0.0575787	0.0218176	0.0223678	0.0409291	-0.0215586	-0.163087	-0.30164	-0.434266	-0.457991	-0.462817	-0.520609	-0.483648	-0.429694	-0.36061	-0.206182	-0.0931582	-0.0154042	0.0812494	0.149526	0.117627	0.0357508	-0.064851	-0.14628	-0.131349	-0.129473	-0.0987104	-0.038323	0.0645482	0.182999	0.340021	0.511526	0.709125	0.894399	1.07015	0.982265	0.807764	0.547913	0.229324	-0.0369339	-0.224453	-0.229648	-0.104362	0.157924	0.516075	0.729309	0.849541	0.931875	1.10441	1.20135	1.21921	1.2202	1.20859	1.1877	1.10814	0.923016	0.775965	0.632374	0.472843	0.266855	0.0646888	-0.0170942	0.120753	0.252035	0.60917	0.630552	0.577437	0.538029	0.417292	0.236666	0.335717	0.21895	0.173085	0.258968	0.302453	0.395943	0.310353	0.239057	0.243038	0.320799	0.402832	0.514484	0.646719	0.625514	0.504068	0.380376	0.254976	0.155949	0.0390341	-0.0454169	-0.0769555	-0.082981	-0.0757355	-0.0350823	0.0378387	0.0662905	0.123339	0.315841	0.507407	0.665113	0.654661	0.58026	0.392979	0.184317	-0.0290103	-0.443851	-0.856054	-1.20566	-0.825423	-0.836945	-0.828678	-0.80144	-0.765714	-0.712198	-0.65152	-0.585021	-0.523647	-0.438144	-0.37793	-0.333054	-0.529748	-0.57149	-0.593299	-0.501409	-0.365211	-0.201582	-0.0458298	0.145823	0.245292	0.324285	0.409669	0.498426	0.589242	0.684163	0.799272	0.915602	1.04109	1.16439	1.27715	1.47096	1.65292	1.86317	2.0262	2.29191	2.46624	2.61827	2.76509	2.81349	2.74987	2.49449	2.31663	2.22705	2.21787	2.2341	2.30115	2.33728	2.38076	2.38238	2.42521	2.51234	2.53279	2.61819	2.73231	2.85168	2.9669	3.03542	3.19055	3.32852	3.49131	3.65401	3.74433	3.86089	3.91929	3.8449	3.73886	3.59027	3.37761	3.14383	3.09331	3.38888	3.55847	3.71043	3.82323	3.80357	3.81794	3.7457	3.79652	4.0869	4.14702	4.1549	3.99372	3.7835	3.61414	3.55339	3.5524	3.67288	3.93398	4.29943	5.01165	5.45766	5.99782	6.51742	6.9651	7.46416	7.87384	8.26624	8.58825	8.71898	8.82219	8.75086	8.51593	8.0967	7.8694	7.77329	8.04048	8.78709	10.6724	10.9369	10.5554	10.5293	10.4941	10.5494	11.3092	11.4166	11.7775	12.1674	12.6208	13.0809	13.6938	14.4494	15.2763	16.1116	16.8895	17.5553	18.074	18.6343	19.1984	19.8264	20.5292	21.2666	21.867	22.2586	22.6501	23.0243	23.4119	23.7487	24.0649	24.4116	24.8324	25.0624	25.2466	25.4044	25.4946	25.4263	25.4219	25.5166	25.8891	26.3033	26.8133	27.4127	27.9736	28.4694	29.0495	29.6246	30.3167	31.3077	32.8664	32.8173	32.0682	30.5244	28.6002	26.3169	23.7868	21.4611	19.3302	17.4585	15.9471	14.7795	14.0017	14.8156	14.4866	14.5435	14.8106	15.1953	15.6182	16.0998	16.5718	16.9731	17.3235	17.6651	17.9212	18.203	18.1871	17.4555	16.7891	15.868	14.7726	13.4597	11.8866	10.1458	8.74062	7.30596	7.00204	6.00314	5.04795	4.12454	3.39767	2.80877	2.32624	1.88772	1.55657	1.29393	1.20631	1.10629	1.01488	0.931399	0.843298	0.724114	0.529208	0.320257	0.16434	0.0229704	-0.0467415	-0.105042	-0.333063	-0.494359	-0.573562	-0.684741	-0.704456	-0.693371	-0.673141	-0.537922	-0.414768	-0.15853	0.001105	0.014369	0.0378555	0.0110044	-0.0478809	-0.157213	-0.268783	-0.38543	-0.394209	-0.330173	-0.197848	-0.0427022	0.112964	0.253379	0.398815	0.537673	0.623174	0.697827	0.764239	0.859772	0.785742	0.720989	0.615944	0.463286	0.440313	0.442175	0.529943	0.600916	0.535332	0.418912	0.301555	0.186342	0.0483879	-0.0431788	-0.120176	-0.197746	-0.263219	-0.330963	-0.283544	-0.219184	-0.168188	-0.166497	-0.140518	-0.0878419	0.0275348	0.206938	-0.0569284	0.718971	1.16651	1.28392	1.39504	1.41325	1.45544	1.23915	1.04352	0.710176	0.446833	0.246111	-0.103521	-0.375682	-0.544117	-0.649968	-0.618444	-0.5229	-0.363247	-0.152965	0.192005	0.567914	1.06154	1.55465	1.85233	2.28887	2.77005	3.30818	3.98663	4.68549	5.42075	5.7525	5.69038	5.55983
0	20	36.4674	35.0303	33.7039	32.439	31.2652	30.255	29.4091	28.6272	27.8616	27.0768	26.3031	25.4932	24.6443	23.7793	22.8915	21.9887	21.0475	20.0507	19.0477	18.0247	16.9735	15.9666	15.001	14.0589	13.3209	12.662	12.0858	11.5745	11.0778	10.5934	10.1187	9.65658	9.10381	8.54505	7.94511	7.37792	6.80923	6.28273	5.75184	5.15927	4.60918	4.072	3.65882	3.26574	2.9228	2.63297	2.23202	1.82767	1.46762	1.11849	0.828593	0.606498	0.466837	0.365426	0.30472	0.25852	0.239362	0.231677	0.176769	0.152462	0.129872	0.0964722	0.0502475	-0.0130361	-0.0793354	-0.134421	-0.182475	-0.152543	-0.162188	-0.227704	-0.320255	-0.466003	-0.681494	-1.02105	-1.09212	-0.929315	-0.500586	0.321044	0.0975862	0.351478	0.545248	0.601571	0.604089	0.513052	0.395678	0.254726	0.125138	0.0195444	-0.0559509	-0.0876596	-0.0965128	-0.0545737	0.0120619	0.116139	0.269143	0.598446	0.963342	1.2413	1.46771	1.7751	2.01348	2.20178	2.3526	2.44864	2.51861	2.64452	3.50458	3.42971	3.30723	3.16134	2.96535	2.63913	2.34797	2.21514	2.18041	2.36664	2.57568	2.78221	2.98318	3.15881	3.34352	3.4343	3.53399	3.60278	3.65133	3.59319	3.50228	3.27771	3.26062	3.32208	3.44037	3.70315	3.99218	4.28901	4.61833	4.8714	5.10003	5.28796	5.36673	5.37714	5.3047	5.22195	5.12934	5.04612	4.9837	4.94814	4.94346	5.02577	5.26412	5.55007	5.84808	6.07521	6.28434	6.50117	6.74456	7.01154	7.28736	7.55663	7.89736	8.26754	8.6463	9.03332	9.42149	9.80446	10.1873	10.6669	11.165	11.6394	12.0773	12.5021	12.8708	13.1953	13.4915	13.7307	13.9357	14.084	14.1775	14.2176	14.2021	14.0525	13.8704	13.6294	13.3733	13.1067	12.8294	12.6723	12.6071	12.546	12.6053	12.6847	12.7865	12.6976	12.5128	12.2831	12.0671	11.865	11.6226	11.4478	11.29	11.141	11.0483	11.0426	11.046	11.0612	11.0481	11.0512	11.0611	11.0419	10.9988	10.9209	10.7475	10.5585	10.3629	10.1677	9.98355	9.80228	9.62283	9.44494	9.27292	9.13218	8.98777	8.86794	8.73765	8.62803	8.51998	8.47994	8.40165	8.32609	8.17657	7.97794	7.75856	7.45832	7.17171	6.88661	6.65594	6.43062	6.22912	6.06208	5.92387	5.80116	5.7097	5.65114	5.59391	5.53862	5.55061	5.53672	5.53115	5.52358	5.40958	5.23615	5.08568	4.90665	4.76453	4.63479	4.54313	4.47333	4.43004	4.3823	4.31569	4.20824	3.95364	3.68509	3.41348	3.13491	2.87303	2.63211	2.44846	2.25607	2.05061	1.88447	1.73204	1.5947	1.44011	1.28838	1.13579	0.988581	0.847428	0.698429	0.495931	0.316468	0.170757	0.0826008	0.00770352	0.0282287	0.111547	0.256369	0.402497	0.558394	0.740404	0.927542	1.09759	1.24014	1.35895	1.35961	1.33299	1.25495	1.15031	1.00947	0.83515	0.648121	0.401781	0.130376	-0.108251	-0.347713	-0.563171	-0.679372	-0.734911	-0.75592	-0.737579	-0.664129	-0.582088	-0.491926	-0.3661	-0.25126	-0.146272	-0.0865055	-0.0235618	0.0358519	0.0716601	0.108434	0.134164	0.151793	0.125097	0.104809	0.0768391	0.0622692	0.107224	0.210868	0.352863	0.532975	0.72383	0.944019	1.13057	1.31894	1.41222	1.47326	1.46793	1.47838	1.58284	1.69162	1.84924	2.01143	2.52444	2.68546	2.85617	3.00096	3.15102	3.31731	3.52429	3.79355	4.10151	4.49862	4.94823	5.47721	6.10234	6.74771	7.34926	7.99464	8.66014	9.37616	10.1722	11.0052	11.9065	12.8034	13.775	14.8238	16.0169	17.1904	18.3496	19.5251	20.7096	21.824	22.7751	23.7148	24.8476	26.0536	27.3201	28.6339	30.3051	31.7055	33.1323	34.2566	35.0472	36.3073	37.7658	39.4457	41.2948	43.2205	45.1484	47.0504	48.8185	50.6708	52.42	53.9586	55.3289	56.3068	57.4198	58.2476	58.9897	59.5925	60.0573	60.4619	61.0313	61.6938	62.5516	63.4064	64.2587	65.0349	65.715	66.2971	66.7202	66.8947	66.767	66.3548	65.8307	65.2198	64.5212	63.4256	62.2006	60.8229	59.823	58.7652	57.8444	56.9009	56.0576	55.3627	54.9068	54.6173	54.6333	53.576	52.1212	50.3161	48.6245	46.9114	45.3759	44.1373	43.2923	41.973	40.6835	39.6075	38.1084	36.8143	35.6158	34.5322	33.5865	32.8739	32.0204	31.2107	30.4581	29.7343	29.0319	28.3379	27.6295	26.9287	26.1624	25.3991	24.7637	24.1686	23.586	22.9622	22.2987	21.667	21.0607	20.4731	19.9114	19.3865	18.8822	18.3616	17.855	17.3741	16.9514	16.5772	16.2738	16.1472	16.1179	16.2449	16.4775	16.8675	17.3713	17.9883	18.6997	19.171	19.9775	20.5969	21.4498	22.229	22.5266	22.8153	23.1968	23.5179	24.1857	24.6284	25.7016	27.6181	29.7466	32.7886	36.896	41.9293	49.0076	58.0563	69.1891	84.5495	103.891	128.874	156.184	179.004	202.152	194.757	187.43	157.796	135.523	108.383	83.9961	67.8893	58.2859	42.8433	37.3109	32.5725	28.0059	24.1908	20.896	17.8904	16.2765	14.735	13.3346	11.9757	11.065	9.97324	8.89915	8.02276	7.23616	6.62887	6.18331	5.78236	5.415	5.131	4.76492	4.39351	4.0472	3.72857	3.43742	3.19477	2.99374	2.80264	2.63226	2.51128	2.41279	2.35867	2.2656	2.19495	2.12181	2.00741	1.9264	1.87356	1.82298	1.78097	1.74491	1.72286	1.73306	1.73129	1.7069	1.68143	1.61184	1.42234	1.29077	1.19073	1.13109	1.03977	0.95195	0.868758	0.781305	0.684822	0.555784	0.421705	0.272738	0.187762	0.0884128	-0.0314883	-0.134706	-0.24997	-0.371348	-0.516815	-0.64241	-0.799993	-0.783636	-0.713472	-0.564474	-0.329449	-0.103614	0.103582	0.240514	0.358206	0.455677	0.504492	0.46234	0.440858	0.388667	0.291279	0.121164	-0.205164	-0.532413	-0.69938	-0.806949	-0.804221	-0.720006	-0.625665	-0.474571	-0.311508	-0.153661	0.00752162	0.104706	0.213957	0.267525	0.265853	0.258047	0.242832	0.199656	0.146096	0.0631894	0.0100392	-0.0326161	-0.0654745	-0.0937018	-0.120811	-0.157444	-0.176521	-0.172414	-0.162288	-0.123763	-0.0794596	-0.021567	0.0452082	0.127014	0.225397	0.333697	0.390085	0.464485	0.529223	0.582253	0.615119	0.607167	0.509798	0.326929	0.134452	-0.0509746	-0.224789	-0.287122	-0.422526	-0.527452	-0.562957	-0.261986	-0.0665951	0.136668	0.369668	0.58897	0.77808	0.899367	1.01003	1.07688	1.11012	1.09369	1.03398	0.899847	0.681268	0.338741	0.173127	0.108503	0.00592267	-0.0764238	-0.111699	-0.131443	-0.0957745	-0.0502132	-0.023223	0.0874029	0.20622	0.325855	0.449393	0.505332	0.55197	0.575332	0.569158	0.558734	0.577327	0.673432	0.747435	0.814838	0.858168	0.857549	0.774909	0.718886	0.674129	0.738369	0.844702	1.00952	1.16817	1.41848	1.57558	1.80534	2.0123	2.20709	2.32292	2.39375	2.42849	2.42987	2.35108	2.23207	1.95756	1.66595	1.3749	1.06855	0.777679	0.563305	0.39563	0.214767	0.109377	0.00890164	-0.03291	-0.0382181	-0.0552787	-0.0698604	-0.097864	-0.142135	-0.322069	-0.477137	-0.677059	-0.900391	-1.10331	-1.28116	-1.43404	-1.47744	-1.39541	-1.25972	-1.07535	-0.765768	-0.470913	-0.17122	0.11095	0.391555	0.61859	0.823616	0.993397	1.12711	1.27865	1.38701	1.48585	1.57144	1.64021	1.67514	1.68673	1.61877	1.61797	1.62718	1.68941	1.75035	1.84307	1.95412	2.07262	2.20024	2.35521	2.48556	2.61035	2.66062	2.79309	2.99685	3.23792	3.5451	3.87567	4.18753	4.2823	4.10536	4.01719	3.97417	3.90937	3.8507	3.78612	3.81669	3.87319	3.96833	4.03748	4.11497	4.23291	4.49517	4.60931	4.64728	4.60534	4.51077	4.37567	4.25426	4.16386	4.08313	4.10224	4.13404	4.22292	4.33372	4.47353	4.75756	5.07411	5.2929	5.4691	5.60662	5.71388	5.88294	6.00688	6.18004	6.32694	6.4412	6.55619	6.70236	6.87474	7.12313	7.43511	7.76894	8.1206	8.44847	8.67451	8.91669	9.17725	9.49635	9.81927	10.1504	10.4972	10.8344	11.1636	11.4581	11.7785	12.1579	12.594	13.1442	13.6575	14.1501	14.6414	15.103	15.5237	15.8216	16.1994	16.564	16.8132	16.9786	17.1455	17.3402	17.6078	17.9634	18.425	18.9006	19.4872	20.1783	21.0245	22.0147	23.1036	24.0185	24.8378	25.6947	26.5115	27.2899	27.9776	28.4529	28.7707	28.9164	28.8633	28.6559	28.3616	27.9266	27.7024	27.3943	27.1805	27.264	27.3989	27.3215	27.7524	28.2419	29.0274	29.8393	30.6591	31.2402	31.7944	32.1333	32.3651	31.9983	31.1664	29.8648	28.078	25.9663	23.1706	21.0828	19.4208	18.0298	16.8081	15.6604	15.0596	14.7104	14.5673	15.0396	15.7645	16.2838	16.7903	17.333	17.8821	18.3622	18.7156	18.9008	18.9941	18.9198	18.6654	18.223	17.5428	16.652	15.5666	14.3571	13.0885	11.7126	10.3205	9.00462	7.77682	6.61088	5.45271	4.43281	3.59816	2.93609	2.476	2.17233	1.98764	1.83569	1.70237	1.54348	1.39751	1.26564	1.11203	0.973444	0.79329	0.623468	0.50003	0.339221	0.307105	0.261969	0.264473	0.326892	0.465587	0.62829	0.804887	1.01249	1.04385	1.04204	1.0036	0.90258	0.73852	0.444175	0.284703	0.173766	0.0584773	-0.0405656	-0.171426	-0.300467	-0.414291	-0.512416	-0.618333	-0.706164	-0.770127	-0.817413	-0.845265	-0.850384	-0.785931	-0.709546	-0.627166	-0.539466	-0.453423	-0.353506	-0.300431	-0.231519	-0.187268	-0.130461	-0.0617527	0.0320672	0.133468	0.366878	0.598028	0.814415	1.02057	1.08594	1.04541	0.728146	0.623928	0.51597	0.425861	0.338887	0.170688	0.00961284	-0.150302	-0.245315	-0.25131	-0.051536	0.218135	0.644613	0.932252	1.10216	1.12844	1.13705	1.00121	0.743197	0.204491	0.105734	0.0469776	0.282324	0.202099	0.0295159	-0.140677	-0.263529	-0.344578	-0.279068	-0.180699	-0.0137943	0.206509	0.486032	0.83366	1.32176	1.93687	2.58209	3.23329	3.90718	4.56427	5.17949	5.76241	6.2331	6.67703
20	-20.0732	41.6628	40.0364	38.7971	37.6246	36.5116	35.3145	34.0948	32.8465	31.6249	30.3839	29.1206	27.6264	26.1215	25.0627	24.1105	23.1906	22.337	21.4863	20.6758	19.8707	19.0696	18.2625	17.4679	16.6556	15.9076	15.0783	14.108	12.8173	11.8438	11.0192	10.2221	9.60637	9.17802	8.81807	8.48142	8.15082	7.72723	7.36012	6.89432	7.17009	5.94147	4.85768	3.89735	2.79128	2.1604	1.72384	1.43456	1.30283	1.22992	1.20931	1.20109	1.1654	1.1058	1.0341	0.877958	0.645743	0.363746	0.103388	-0.232496	-0.460453	-0.667679	-0.80816	-0.88899	-0.844984	-0.741087	-0.558263	-0.317375	-0.0183567	0.322831	0.623878	0.909408	1.12319	1.31728	1.47341	1.57576	1.57302	1.5178	1.41472	1.28188	1.26909	0.949236	0.524255	0.158763	-0.164239	-0.421459	-0.61612	-0.62982	-0.527418	-0.252063	0.185169	0.638398	1.06453	1.48137	1.88677	2.2614	2.59037	2.89266	3.14556	3.39482	3.56004	3.65485	3.81871	3.91025	3.95859	4.07376	4.255	4.45913	4.63593	4.76805	4.85091	4.99823	5.14838	5.29129	5.39626	5.4507	5.42112	5.37192	5.25555	5.12281	5.17041	5.29659	5.41886	5.51012	5.63833	5.78718	5.98455	6.17711	6.4623	6.75707	7.00747	7.26969	7.56954	7.77169	7.97616	8.17825	8.41095	8.71247	9.09528	9.49627	9.93806	10.394	10.8462	11.2908	11.4752	11.6758	11.7177	11.9573	11.8625	11.6927	11.5044	11.3074	11.1526	10.9674	10.9237	10.7366	10.8912	11.1837	11.6191	12.1526	12.7345	13.5066	14.313	15.1221	15.8033	16.4611	17.0765	17.6515	18.1607	18.548	18.732	18.778	18.7065	18.7209	18.7835	18.8298	18.8566	18.8673	18.8851	18.8944	18.9027	18.9089	18.8724	18.8483	18.7874	18.6891	18.5456	18.3391	17.9767	17.6302	17.274	16.9569	16.6773	16.4401	16.2419	16.0776	15.927	15.8387	15.7996	15.8027	15.8673	16.0418	16.3216	16.5941	16.7974	16.9269	16.9826	16.948	16.8673	16.7906	16.7039	16.6246	16.5587	16.4449	16.2398	16.0547	15.8817	15.6631	15.4543	15.2293	14.9507	14.8115	14.593	14.3528	14.0804	13.8397	13.5871	13.3396	13.095	12.8949	12.7159	12.5596	12.4856	12.3978	12.3383	12.2311	11.8477	11.5326	11.2504	10.9948	10.7565	10.4626	10.1497	9.84024	9.42919	8.99958	8.60679	8.26683	8.11413	8.02254	7.95208	7.8546	7.78923	7.6993	7.70738	7.70557	7.6896	7.56923	7.42275	7.24362	7.01161	6.72405	6.38139	5.89864	5.34445	4.8063	4.30378	3.9383	3.64311	3.42906	3.29612	3.24592	3.27206	3.3748	3.52134	3.97291	4.12402	4.22041	4.24318	4.22928	4.16171	4.04904	3.8008	3.50169	3.17496	2.9069	2.81151	2.81195	2.97105	3.26355	3.71999	3.81011	3.8651	3.78717	3.36838	1.98389	3.08038	2.6111	2.18349	1.75776	1.36176	0.990161	0.649809	0.397441	0.183132	-0.0160778	-0.166969	-0.277806	-0.341593	-0.339348	-0.299619	-0.219275	-0.0988334	0.0628748	0.264427	0.449318	0.601842	0.734529	0.834151	0.898964	0.82141	0.71589	0.464685	0.159248	-0.207652	-0.610351	-1.01011	-1.19521	-1.09666	-0.874063	-0.694682	-0.397532	-0.0759682	0.188924	0.346299	0.484151	0.661796	0.909358	1.17738	1.44851	1.73483	2.01843	2.27711	2.51316	2.82402	3.14227	3.46396	3.83318	4.21812	4.61438	4.86364	5.05443	5.11274	5.12659	5.41787	5.78804	6.28091	6.81782	7.44479	8.02224	8.57602	9.12302	9.72444	10.3495	11.05	11.8202	12.5982	13.3528	14.0565	14.6571	15.2475	15.7768	16.4261	17.2813	18.2095	19.2228	20.3101	21.4491	22.6394	23.8813	25.2076	26.6029	28.0739	29.6492	31.281	32.8957	34.4121	35.9589	37.5063	39.0588	40.6213	42.0822	43.3892	44.5335	45.5045	46.3965	47.1899	47.917	48.5899	49.2245	49.8094	50.3414	50.8785	51.4347	51.9517	52.4933	53.1872	53.9246	54.5664	55.1643	55.6095	55.8425	55.7085	55.2769	54.7451	54.2892	53.7986	53.2463	52.4626	51.4526	50.4526	49.5429	48.6943	48.4388	47.8024	47.0512	46.2469	45.3526	44.3857	43.2417	42.1012	41.0398	39.9699	38.8944	37.8277	36.7587	35.6782	34.5861	33.4967	32.4224	31.4936	30.5572	29.5702	28.5472	27.4849	26.4012	25.3463	24.3188	23.1936	22.2312	21.3509	20.546	19.7626	18.9512	18.2505	17.5937	17.0017	16.4426	15.9121	15.378	14.8521	14.3468	13.9239	13.5504	13.2888	13.1482	13.1357	13.1622	13.2367	13.2819	13.3135	13.2947	13.1777	13.1371	13.1211	13.1728	13.248	13.3977	13.5869	13.8167	14.1017	14.429	14.8222	15.3704	15.9979	16.4826	16.9487	17.2631	17.464	17.5117	17.4	17.6886	18.4183	18.9284	19.9318	21.4293	23.4187	27.1786	31.3045	37.0465	45.4049	61.1574	67.6794	86.7474	97.913	125.589	146.966	163.477	172.43	157.097	134.323	110.63	83.5216	68.0992	55.4019	45.5955	37.0647	31.162	26.1054	22.2767	18.9523	15.9506	13.6689	10.8856	8.98611	7.68618	6.70934	5.86657	5.22559	4.72175	4.12188	3.68368	2.98731	1.88132	1.45829	1.26267	1.40703	1.7219	2.31231	2.36519	0.696826	0.981885	1.29924	1.78282	2.18344	2.33304	2.45578	2.47578	2.4641	2.42625	2.35587	2.27113	2.17657	1.93074	1.67472	1.40537	1.14686	0.928228	0.725673	0.581987	0.443809	0.329621	0.229895	0.146008	0.0977001	0.0588972	0.0534837	0.0483552	0.0675947	0.137855	0.280856	0.55395	0.763722	0.932388	1.08218	1.2288	1.39236	1.43373	1.34409	1.15772	0.87973	0.541696	0.21444	-0.219429	-0.645968	-0.961189	-1.14478	-1.24651	-1.14482	-0.950621	-0.750464	-0.732074	-0.700235	-0.65279	-0.590652	-0.511252	-0.404099	-0.287477	-0.156793	-0.0800309	0.011637	0.140999	0.256254	0.353078	0.421005	0.53649	0.63419	0.710887	0.777239	0.797381	0.776885	0.670214	0.58183	0.507031	0.435052	0.371106	0.356482	0.257415	0.115091	-0.0939848	-0.345709	-0.576652	-0.76491	-0.906104	-0.983042	-1.02194	-1.02579	-0.930871	-0.806967	-0.664076	-0.52181	-0.282053	-0.0238758	0.303066	0.551453	0.720244	0.875081	1.00668	1.17487	1.34547	1.50836	1.61586	1.65541	1.63969	1.56548	1.47376	1.34142	1.15997	0.971143	0.779886	0.688398	0.637143	0.611058	0.605401	0.629067	0.628703	0.679422	0.763848	0.874086	1.00416	1.13523	1.28171	1.42654	1.63981	1.76507	1.84769	1.87655	1.89907	1.87223	1.74359	1.56965	1.38981	1.2026	1.02864	0.899702	0.759911	0.620291	0.499102	0.365691	0.355974	0.371448	0.380663	0.389814	0.357475	0.255261	0.179962	0.0507179	-0.00489827	-0.0674041	0.181984	0.553305	0.981089	1.34343	1.66159	1.95791	2.26462	2.32196	2.2773	2.19576	2.13805	1.99913	1.82533	1.61204	1.32709	1.08885	0.921905	0.787699	0.754973	0.642444	0.57898	0.494662	0.343266	0.177383	0.0181125	-0.079933	-0.158944	-0.231039	-0.287463	-0.318052	-0.27532	-0.214952	-0.14666	-0.112663	-0.0126091	0.0582263	0.0357471	-0.0146321	-0.0872407	-0.1716	-0.272429	-0.436447	-0.614327	-0.795	-0.957847	-1.13157	-1.29754	-1.42302	-1.43018	-1.33723	-1.19575	-0.923769	-0.593654	-0.270274	-0.0502616	0.11606	0.229015	0.259727	0.299941	0.289204	0.241771	0.159528	0.255202	0.270058	0.148903	0.118641	0.112791	0.147801	0.242727	0.449535	0.715433	1.03082	1.3028	1.50654	1.66588	1.80191	1.95418	2.12481	2.27993	2.3539	2.33789	2.12294	2.04205	2.01014	1.91764	1.75347	1.64456	1.60684	1.59407	1.60844	1.67435	1.78978	1.94365	2.10986	2.2462	2.29183	2.32565	2.39744	2.52121	2.57216	2.5129	2.41998	2.30613	2.17814	2.0501	1.96094	1.87185	1.77254	1.67815	1.59789	1.51238	1.45042	1.46483	1.47627	1.57124	1.75452	1.96914	2.35574	2.76508	3.12091	3.48566	3.78204	4.07857	4.34689	4.5702	4.7191	4.85138	4.96903	5.10118	5.18356	5.19815	5.20835	5.24809	5.37574	5.54237	5.7588	6.07533	6.42548	6.84562	7.15615	7.45856	7.84807	8.31401	8.84018	9.34566	9.88361	10.4191	10.9711	11.5627	12.2558	13.0039	13.7938	14.5987	15.4013	16.1275	16.8183	17.4513	17.9796	18.4287	18.6971	19.1116	19.5145	19.917	20.265	20.58	20.9308	21.3378	21.7969	22.3804	23.043	23.7102	24.3123	24.7139	25.0991	25.4292	25.5424	25.2455	24.8877	24.7162	24.6425	24.3785	24.1679	23.9662	23.8552	23.8592	23.9329	24.0852	24.3746	25.2832	25.3747	25.0322	24.3275	23.2479	21.8341	20.4319	18.9063	17.3291	15.8008	14.4084	13.2483	12.3744	12.1412	12.344	12.3715	12.537	13.0003	13.4665	13.9754	14.5265	15.1183	15.6241	15.9585	16.1586	16.177	15.9944	15.716	15.2776	14.5151	13.5012	12.3512	11.006	9.6721	8.34908	7.14623	6.08448	5.13111	4.28891	3.53545	2.91435	2.41777	2.04469	1.73501	1.74313	1.35276	0.803677	0.604684	0.413944	0.330766	0.287428	0.287958	0.312461	0.359842	0.413129	0.433169	0.463625	0.424042	0.307351	0.023555	-0.0721753	-0.238145	-0.425794	-0.600267	-0.724164	-0.767959	-0.752048	-0.66582	-0.508077	-0.298225	-0.0736871	0.228405	0.514907	0.812985	1.0653	1.25307	1.33266	1.42713	1.5211	1.67389	1.8039	1.89137	1.93934	1.90965	1.78174	1.61546	1.42969	1.29834	1.16497	1.12388	1.06688	1.14336	1.21265	1.27476	1.30693	1.26032	1.20493	1.14991	1.08977	1.06784	1.10478	1.15833	1.32964	1.45677	1.56233	1.63823	1.64085	1.60154	1.53315	1.42063	1.27817	1.15414	0.939593	0.680076	0.369957	0.0119265	-0.369559	-0.759079	-1.15086	-1.37822	-1.3882	-1.26483	-1.10755	-0.93307	-0.819219	-0.717309	-0.599003	-0.437106	-0.159893	0.0856117	0.266641	0.444857	0.511785	0.557503	0.564544	0.640493	0.810812	0.904402	0.892685	0.793808	0.645268	0.386523	0.127132	0.0331977	-0.0736166	1.28815	2.79115	4.25951
20	-0.0366178	42.6186	42.7825	42.0854	41.2856	40.3628	39.2611	37.9992	36.7158	35.4192	34.1872	32.3779	30.6411	29.3771	28.2027	27.2776	26.2858	25.3646	24.6301	24.1694	23.5558	22.879	22.1454	20.9932	20.0706	19.1235	18.1513	17.1571	16.1476	15.1763	14.2127	13.2986	12.4382	11.6465	10.8746	10.175	9.43139	8.67389	7.94435	7.30759	6.71394	6.12103	5.4374	4.76809	4.35061	3.94335	3.54588	3.16448	2.85207	2.59169	2.36228	2.10339	1.66532	1.07462	0.680588	0.399935	0.318732	0.2406	0.12941	0.0548264	0.026917	0.0402229	0.069879	0.13975	0.146029	0.088119	-0.0673602	-0.234763	-0.367968	-0.348013	-0.287582	-0.117056	0.100292	0.187859	0.216902	0.166941	0.0612515	-0.093984	-0.279197	-0.583503	-0.50795	-0.252111	-0.0552747	0.0978923	0.267041	0.162332	-0.165864	-0.0929787	-0.0166741	0.1199	0.221071	0.238772	0.190888	0.0544798	-0.0714373	-0.249647	-0.145683	0.110886	0.506885	0.948716	1.38724	1.37865	1.20907	0.477438	0.152052	-0.230878	0.0992051	-0.0317539	-0.123827	-0.182274	-0.160334	-0.0312538	0.270783	0.444411	0.689645	0.967874	1.25228	1.49699	1.7195	1.92171	2.13958	2.24636	2.31427	2.37801	2.42501	2.36426	2.17364	1.88882	1.69807	1.5351	1.42581	1.40757	1.44364	1.60554	1.8763	2.19806	2.47177	2.71126	2.94073	3.1467	3.36798	3.51078	3.56931	3.56338	3.45339	3.33374	3.27558	3.26921	3.32433	3.46448	3.72064	4.12874	4.48228	4.73186	5.04187	5.70371	6.17252	6.59898	6.94874	7.2596	7.42329	7.45432	7.50606	7.6314	7.95586	8.3802	8.86548	9.37606	9.92241	10.4333	10.8741	11.3336	11.8596	12.0974	12.3151	12.428	12.5792	12.9989	13.4375	13.4918	13.4443	13.3901	13.3071	12.9711	12.7815	12.6448	12.5255	12.3938	12.2652	12.1472	12.0321	11.9376	12.2506	12.1976	12.0877	11.9336	11.7527	11.5483	11.3261	11.1129	10.8586	10.6596	10.5231	10.3797	10.3286	10.2831	10.2447	10.2018	10.1454	10.0873	10.0583	10.0083	9.95601	9.8995	9.82401	9.75796	9.68411	9.58318	9.48469	9.39545	9.30508	9.20563	9.13401	8.93218	8.82037	8.66446	8.54544	8.4108	8.3519	8.31501	8.26212	8.13332	7.84201	7.54365	7.28102	6.98536	6.66518	6.37732	6.17883	6.11301	5.99166	5.90033	5.80519	5.74479	5.69527	5.6838	5.68045	5.69807	5.65123	5.40367	5.10183	4.84908	4.60788	4.40978	4.20515	4.01946	3.76395	3.5564	3.42759	3.3562	3.25194	3.12096	2.98829	2.88464	2.79921	2.69306	2.53656	2.35981	2.20191	2.07346	2.0606	2.10708	2.21082	2.35371	2.4234	2.54538	2.64811	2.7123	2.69062	2.61322	2.45515	2.36543	2.18641	1.92553	1.60001	1.26082	0.947826	0.728158	0.546589	0.38484	0.281381	0.213705	0.170625	0.165947	0.174235	0.192965	0.130257	0.0803027	0.0311292	-0.0232859	-0.0529654	-0.0633248	-0.0636499	-0.0767362	-0.0373375	0.0249286	0.100294	0.16207	0.190009	0.223363	0.160508	0.10784	0.0269161	-0.0693244	-0.172137	-0.344914	-0.708369	-0.956659	-1.13107	-1.18923	-1.04425	-0.820412	-0.501481	-0.227441	0.239904	0.447841	0.600137	0.681813	0.631614	0.573056	0.487572	0.416746	0.428446	0.49619	0.573844	0.585715	0.586876	0.702705	0.883975	1.32741	1.53772	1.70219	1.88175	2.04135	2.22189	2.4183	2.5957	2.78529	3.17222	3.5384	3.86916	4.1013	4.26849	4.47009	4.92065	5.47229	6.0825	6.7169	7.35298	8.05655	8.74682	9.53664	10.3476	11.1645	12.0105	12.8465	13.6628	14.3928	15.1074	15.6761	16.1743	16.6236	17.1504	17.6455	18.3247	19.155	20.2306	21.4056	22.6627	23.9682	25.3285	26.7546	28.2382	29.746	31.2289	32.6943	34.1684	35.6244	37.0359	38.4696	39.9165	41.4641	43.1175	44.7874	46.4262	48.059	49.6478	51.1654	52.4009	53.4753	54.3663	55.0628	55.4913	55.6938	55.3504	55.2957	55.2838	55.6398	55.4528	55.1947	54.8987	54.5818	54.296	53.9126	53.5228	53.1694	52.8255	52.4514	52.009	51.6185	51.3219	50.8552	50.3216	49.8221	49.2995	48.5816	47.7574	46.893	45.8271	44.7485	43.6759	42.7638	41.9527	41.1786	40.4226	39.6295	38.7723	37.8982	37.1477	36.3951	35.6774	34.9868	34.4354	33.7381	32.813	31.6433	30.4526	29.2695	28.1697	27.1625	26.1852	25.2927	24.4477	23.74	23.0765	22.5243	22.0393	21.6753	21.4537	21.1587	20.8088	20.3663	19.8598	19.2101	18.4793	17.7025	16.9548	16.276	15.6504	15.0923	14.5978	14.2211	13.9541	13.8803	13.9354	14.1227	14.4666	14.9648	15.535	16.0982	16.7016	17.307	17.9749	18.6129	19.1953	19.4072	19.5976	19.6902	19.7261	19.8065	20.2523	20.6114	21.2339	22.3966	23.2286	24.8577	27.0862	29.913	33.503	39.3975	45.9594	56.7452	66.6914	81.5704	103.091	127.047	148.366	164.772	169.471	157.326	134.769	105.387	83.6978	69.9134	59.465	43.1581	35.6278	30.2644	30.2926	26.4944	19.9245	18.4454	16.7288	15.134	13.2116	11.5093	9.99439	9.06916	8.26327	7.74084	7.0793	6.48919	5.9517	5.47617	5.09016	4.79573	4.60389	4.43686	4.1618	3.88198	3.64216	3.45845	3.30281	3.20931	3.1644	3.16711	3.22758	3.38278	3.49463	3.44183	3.26127	2.99571	2.65898	2.33474	2.02576	1.77037	1.55128	1.27396	0.849062	0.70818	0.601787	0.510197	0.419148	0.350601	0.241659	0.129328	0.0108002	-0.146458	-0.302541	-0.43925	-0.562627	-0.656685	-0.720062	-0.559362	-0.470111	-0.380651	-0.377288	-0.358121	-0.235909	-0.071026	0.0899329	0.229868	0.311106	0.285843	0.267661	0.228375	0.19511	0.228723	0.199481	0.191358	0.249837	0.348613	0.441981	0.492004	0.598313	0.724103	0.818308	0.884637	0.894135	0.80566	0.680921	0.532204	0.442802	0.353464	0.276553	0.126983	-0.0503115	-0.110187	-0.218944	-0.268195	-0.272579	-0.322771	-0.354953	-0.344479	-0.317211	-0.281525	-0.239132	-0.181286	-0.126844	-0.0640738	0.0691889	0.185772	0.335993	0.464884	0.594578	0.710963	0.814277	0.835163	0.842329	0.811445	0.724466	0.600774	0.418838	0.227605	-0.000207276	-0.213438	-0.385445	-0.41547	-0.417099	-0.385823	-0.295878	-0.0895746	0.241553	0.435231	0.703467	0.951029	1.20132	1.47473	1.69453	1.82786	1.81032	1.70784	1.47746	1.26264	1.14549	1.09666	1.06658	1.05691	1.01196	0.997282	1.00264	1.04344	1.14273	1.33804	1.65147	1.56766	1.49933	1.41185	1.32806	1.21335	1.07592	0.930819	0.81588	0.75252	0.714587	0.690349	0.659476	0.558713	0.449014	0.348462	0.258736	0.19957	0.150529	0.11136	0.0640403	0.0433941	0.162402	0.393964	0.700849	1.00223	1.22545	1.37513	1.43614	1.39617	1.28731	1.15191	1.00115	0.830187	0.711867	0.588468	0.4698	0.373684	0.308741	0.269381	0.30498	0.432463	0.565361	0.71092	0.833689	0.907971	0.877044	0.863291	0.850915	0.81208	0.70875	0.59762	0.563115	0.404524	0.261338	0.176572	0.121774	0.101141	0.0718346	-0.00713386	-0.0646966	-0.0695307	-0.0976293	-0.149733	-0.290804	-0.577994	-0.875095	-1.15618	-1.33	-1.45863	-1.5099	-1.51088	-1.45522	-1.42955	-1.27115	-1.04166	-0.724683	-0.390225	-0.0719474	0.210355	0.418553	0.529616	0.411765	0.509241	0.619425	0.724922	0.964287	1.03312	1.03789	1.0187	0.978424	0.940582	1.25045	1.22228	1.15947	1.07401	0.961715	0.829609	0.680331	0.512266	0.556316	0.724453	0.904983	1.08399	1.27008	1.54452	1.80293	1.97759	2.10158	2.22374	2.1606	2.07077	1.96885	1.87738	1.77005	1.76669	1.78024	1.81543	1.87188	1.94059	2.03071	2.11782	2.21472	2.24866	2.36116	2.46354	2.54625	2.64045	2.73973	2.86677	2.92639	3.00131	3.14121	3.34128	3.53268	3.72007	3.87664	3.97413	4.11865	4.31517	4.66435	4.91603	5.04728	5.28091	5.47235	5.60201	5.66757	5.60724	5.49544	5.30955	5.14153	5.05542	5.08252	5.21914	5.49767	5.67491	5.79515	5.93589	6.12073	6.3265	6.5381	6.80243	7.10772	7.44882	7.80783	8.20382	8.61166	9.04814	9.50085	9.98162	10.4998	11.0109	11.4596	11.7652	12.0644	12.2855	12.4836	12.6097	12.7112	12.8064	13.0275	13.3868	13.8697	14.5289	15.2941	16.0448	16.8887	17.7856	18.7313	19.6443	20.6248	21.4029	22.1182	22.7194	23.1692	23.4653	23.6395	23.7453	23.8082	23.8293	23.8523	23.8771	23.8619	23.8734	23.9181	24.041	24.2251	24.492	24.8482	25.2865	26.0981	27.0715	28.0073	28.3893	28.2233	27.7752	27.0046	25.8973	24.476	22.1244	20.2997	18.6777	17.095	15.6996	14.3807	13.2425	12.3539	11.725	11.4204	11.6589	11.8754	12.3197	12.8882	13.5271	14.1636	14.8706	15.5839	16.1424	16.3006	16.2162	15.938	15.4378	14.7869	13.9406	12.8851	11.737	10.5411	9.41422	8.28834	7.18449	6.10786	5.08093	4.14761	3.46353	2.95279	2.55162	2.24088	1.98624	1.75678	1.51428	1.18756	0.884359	0.600769	0.351159	0.129466	-0.0469387	-0.19047	-0.282085	-0.321016	-0.312501	-0.273028	-0.133008	0.0656208	0.270926	0.486578	0.707156	0.853777	0.999708	1.12401	1.09755	1.02911	0.928621	0.78089	0.63566	0.502778	0.371038	0.242456	0.137255	0.119659	0.106158	0.0960081	0.0162112	-0.0628145	-0.145153	-0.22407	-0.278589	-0.347944	-0.349117	-0.33279	-0.261151	-0.20167	-0.132583	-0.0668427	0.0167625	0.0760694	0.0490398	0.0389231	0.0220043	0.00906018	0.00357781	0.00175596	0.0105192	0.0503433	0.102542	0.162576	0.22522	0.327317	0.444258	0.587207	0.732069	0.874733	1.01749	1.15428	1.18292	1.18744	1.13903	1.04595	0.656982	0.35237	0.123901	-0.0785494	-0.259012	-0.415325	-0.495993	-0.546428	-0.571077	-0.598556	-0.621944	-0.557743	-0.362882	-0.170501	0.0407011	0.19956	0.0668232	0.100291	0.115239	0.147562	0.163437	0.17596	0.182404	0.181322	0.20566	0.26526	0.440329	0.686844	0.952773	1.17779	1.45924	2.04809	2.88496	3.50649
20	20	44.0771	41.4519	40.0954	38.8822	38.0251	36.8483	35.7065	34.4483	33.1507	31.635	30.0969	28.8878	27.7481	26.6582	25.6272	24.6228	23.6574	22.7161	21.8141	20.9391	20.0841	19.2323	18.4315	17.6424	16.8945	16.1308	15.3762	14.622	13.8581	13.0895	12.328	11.5913	10.8781	10.1732	9.5487	8.9625	8.485	8.00947	7.52379	7.03462	6.52906	5.98804	5.44665	4.87649	4.30847	3.77005	3.25116	2.77852	2.38835	2.04078	1.77626	1.56675	1.40431	1.26125	1.18413	1.12373	1.05943	0.893629	0.70991	0.491403	0.336109	0.221234	0.131339	0.0739218	0.0247122	-0.0238233	-0.0847463	-0.12227	-0.165622	-0.210353	-0.199631	-0.167411	-0.152946	-0.140308	-0.131176	-0.142743	-0.170987	-0.231968	-0.252262	-0.214339	-0.104954	-0.0858423	-0.0863245	-0.0782639	-0.0430316	0.0199607	0.0947438	0.191232	0.390868	0.604182	0.841691	1.10841	1.34771	1.54297	1.71377	1.84022	1.92859	1.96258	1.95404	1.87608	1.78569	1.63004	1.46776	1.31272	1.37633	1.50454	1.80251	2.16276	2.56546	2.97507	3.4135	3.83215	4.20453	4.53542	4.77581	4.9528	5.04721	5.07887	5.07147	4.93287	4.73186	4.58329	4.41966	4.24896	4.14895	4.05072	3.956	3.89518	3.89032	3.76353	3.65728	3.60928	3.61272	3.66611	3.816	3.99009	4.17376	4.33917	4.48554	4.61517	4.73072	4.86456	5.00426	5.15632	5.27053	5.4652	5.71944	5.99945	6.17294	6.29586	6.44267	6.64743	6.83519	7.03305	7.24002	7.46133	7.6826	7.91232	8.16974	8.4629	8.78086	8.99376	9.27604	9.62186	10.2489	10.7441	11.1303	11.4413	11.7459	12.0294	12.3497	12.7818	13.2697	13.7702	14.2364	14.1294	14.3538	14.5369	14.6765	14.7782	14.8491	14.8933	14.8962	14.8624	14.7683	14.6216	14.4182	14.1911	13.9008	13.6033	13.3205	13.0956	12.9055	12.7557	12.6354	12.5354	12.5076	12.5428	12.6522	12.7786	12.8936	12.9734	13.0187	13.0632	13.081	13.084	12.977	12.8455	12.686	12.5134	12.3349	12.1612	11.9898	11.8644	11.7455	11.7535	11.7774	11.8154	11.6501	11.4496	11.2464	11.0448	10.8903	10.7116	10.5767	10.4752	10.3816	10.2811	10.1635	10.0036	9.74141	9.45199	9.13192	8.8113	8.49792	8.22299	7.94713	7.67106	7.40206	7.28859	7.33745	7.42256	7.5062	7.57488	7.55938	7.54052	7.51142	7.35564	7.09276	6.85233	6.60461	6.37435	6.13489	5.91279	5.68781	5.49353	5.33658	5.17826	5.04235	4.9071	4.789	4.64543	4.49101	4.3138	4.10646	3.84322	3.56639	3.3028	3.05578	2.85697	2.73425	2.67469	2.64616	2.70706	2.80766	2.93969	3.09703	3.19599	3.28916	3.38106	3.42684	3.4073	3.29035	3.11705	2.94188	2.67636	2.46515	2.2138	1.9424	1.658	1.36704	1.04643	0.73946	0.488897	0.289852	0.123086	-0.000443128	-0.0607406	-0.0558818	0.0136729	0.133699	0.327461	0.553064	0.782638	1.00037	1.08763	1.06778	0.931755	0.647342	0.0884202	-0.699023	-1.66912	-1.64789	-0.973282	-0.541988	-0.306931	-0.364432	-0.669379	-0.616458	-0.463008	-0.166855	0.167002	0.551642	0.977995	1.39076	1.6938	1.86897	1.95233	2.00612	2.03436	1.951	1.80463	1.5349	1.28613	1.08828	1.06966	1.11229	1.19696	1.38225	1.57303	1.84214	2.11571	2.41855	2.72583	2.97224	3.18912	3.34794	3.50352	3.65267	3.80695	4.04726	4.33256	4.65752	5.05183	5.48581	5.97266	6.57622	7.2401	7.93863	8.68448	9.39587	10.0631	10.7062	11.2282	11.7947	12.3653	12.9782	13.6592	14.4662	15.308	16.3417	17.4314	18.5532	19.7089	20.8974	21.9959	23.089	24.226	25.3824	26.5738	27.774	28.9395	30.0891	31.2547	32.5063	33.548	34.6095	35.6909	36.6992	37.755	39.1942	41.381	42.81	44.1702	45.4599	46.6871	47.8347	48.8675	49.7888	50.6141	51.3603	52.0793	52.7534	53.2389	53.5361	53.69	53.8108	54.0165	54.2657	54.7895	55.1812	55.1154	54.8555	54.4556	53.9464	53.3775	52.7211	52.1502	51.4819	50.8397	50.1531	49.4863	48.7773	48.154	47.4651	46.7519	46.0246	45.3249	44.7823	44.1595	43.334	42.3654	41.3076	40.1838	39.0025	37.7519	36.5137	35.2998	34.1305	33.0461	32.0039	30.991	30.0917	29.2546	28.4353	27.6473	26.899	26.1456	25.459	24.8158	24.2198	23.6523	23.1692	22.7496	22.3649	21.9666	21.5096	20.8107	20.0025	19.1595	18.1897	17.193	16.1803	15.2218	14.4012	13.7356	13.2912	12.9897	12.9352	12.9596	13.075	13.2969	13.5758	13.8097	14.0245	14.3184	14.6539	15.0125	15.3746	15.7363	16.0697	16.3713	16.5693	16.7675	16.9889	17.2488	17.5559	18.0167	18.6594	19.3923	20.0115	20.4946	21.1651	21.9687	23.0735	24.7679	27.1629	30.6598	35.3004	41.6747	53.1034	65.5954	79.4404	99.4939	121.216	141.017	155.645	158.1	143.956	121.282	100.753	84.4904	68.1839	54.5564	43.9956	35.715	29.415	25.8379	22.6394	19.841	17.1196	14.9493	13.1434	11.7537	9.88365	8.53173	7.24653	6.25097	5.49252	4.82451	4.25551	3.7042	3.23204	2.86893	2.61002	2.47595	2.42116	2.42493	2.47692	2.54819	2.6609	2.78278	2.85761	2.87923	2.83661	2.72485	2.52407	2.27096	1.96982	1.51724	1.06561	0.630692	0.232084	-0.0792845	-0.210773	-0.292423	-0.276455	-0.190245	0.0793115	0.369716	0.669707	0.9615	1.18561	1.34172	1.4503	1.51601	1.52568	1.47871	1.35516	1.19515	0.99367	0.769721	0.552169	0.343268	0.232889	0.174436	0.174915	0.204544	0.274544	0.329809	0.360892	0.353386	0.321024	0.243879	0.127348	0.0529973	0.00850738	-0.0966517	-0.192651	-0.277394	-0.349276	-0.354359	-0.325773	-0.266647	-0.197307	-0.121174	-0.079108	0.00977188	0.0855638	0.150237	0.214926	0.255585	0.286945	0.32488	0.419286	0.478857	0.502374	0.492145	0.375501	0.203811	-0.0160931	-0.246587	-0.497857	-0.708193	-0.868284	-0.980362	-1.05224	-1.0629	-1.01426	-0.931666	-0.843347	-0.66583	-0.469323	-0.266522	-0.144897	-0.0726431	-0.0536001	-0.0575639	-0.0833636	-0.106001	-0.142553	-0.146625	-0.154313	-0.121054	-0.086112	-0.0324641	0.035671	0.123448	0.237013	0.363997	0.527653	0.691191	0.859211	1.0167	1.1763	1.29338	1.38844	1.53804	1.60367	1.54161	1.42087	1.26846	1.22613	1.19613	1.20751	1.25982	1.31482	1.37613	1.41379	1.40481	1.38339	1.35077	1.30178	1.27095	1.26665	1.27307	1.30674	1.33441	1.26492	1.22228	1.15354	1.06609	0.965082	0.795886	0.640448	0.488053	0.328782	0.15829	0.0137789	-0.10804	-0.174343	-0.217093	-0.231353	-0.222421	-0.172006	-0.113698	-0.0661123	0.0137588	0.117171	0.229122	0.366403	0.505608	0.631868	0.768832	0.916058	1.0609	1.23732	1.4629	1.58608	1.61699	1.58827	1.47427	1.3173	1.13869	0.990981	0.866285	0.805225	0.689911	0.561349	0.41914	0.238735	0.0812479	-0.0714885	-0.216562	-0.278969	-0.284247	-0.230013	-0.119303	0.02489	0.163223	0.222003	0.191926	0.142776	0.126841	0.135985	0.172517	0.207144	0.232376	0.233409	0.207063	0.192999	0.153667	0.116831	0.0581479	0.00229792	-0.0376428	-0.0675098	-0.121227	-0.237077	-0.394027	-0.559109	-0.655012	-0.720715	-0.621893	-0.525916	-0.372751	-0.165781	0.142167	0.49206	0.843473	1.18746	1.49995	1.79141	2.05076	2.28462	2.4546	2.59584	2.70885	2.75124	2.69676	2.66727	2.6508	2.67025	2.67333	2.64189	2.58547	2.51878	2.44121	2.37913	2.34272	2.37124	2.5227	2.76195	3.04105	3.41477	3.72048	3.97265	4.0815	4.05129	3.96933	3.84531	3.70329	3.54896	3.44027	3.27055	3.12194	2.98279	2.8716	2.85922	2.92571	3.13956	3.41837	3.69753	4.02375	4.40582	4.77878	5.0884	5.31437	5.49995	5.61069	5.69133	5.68974	5.63078	5.56206	5.47177	5.36622	5.29569	5.222	5.17005	5.16906	5.20124	5.29035	5.39544	5.53569	5.70319	5.88585	6.08982	6.30602	6.5465	6.81163	7.09987	7.46345	7.84882	8.27326	8.75804	9.0615	9.24528	9.43936	9.74727	10.1253	10.5337	10.9332	11.3445	11.7257	12.0884	12.4137	12.6591	12.8806	13.0841	13.2984	13.5359	13.8072	14.2175	14.6771	15.212	15.8135	16.4973	17.2305	17.9755	18.7342	19.4704	20.169	20.7609	21.327	21.8276	22.1572	22.432	22.6653	22.9405	23.1646	23.385	23.5998	23.8455	24.1304	24.4911	24.85	25.1671	25.4426	25.6713	25.8152	25.9553	26.073	26.2219	26.5608	27.1003	27.712	28.3079	28.5901	28.4325	27.9428	26.7315	25.3318	23.8205	22.2516	20.9151	19.5766	18.4104	17.3867	16.4054	15.6009	14.972	14.648	14.2551	14.1774	14.0907	14.1462	14.3734	14.6993	14.9615	15.1818	15.3659	15.5287	15.6705	15.7267	15.5149	15.1508	14.606	13.8278	12.8511	11.739	10.4925	9.2286	8.02336	6.92425	5.95261	5.12879	4.43226	3.84976	3.39834	3.06962	2.90008	2.82121	2.77354	2.64565	2.49991	2.32109	2.0601	1.76945	1.46728	1.18202	1.00341	0.851642	0.712077	0.4975	0.245197	-0.0321138	-0.328486	-0.603541	-0.775747	-0.865437	-0.830147	-0.757236	-0.644929	-0.518675	-0.442313	-0.354896	-0.267506	-0.160604	-0.0393903	0.150042	0.383056	0.611387	0.854948	1.03487	1.13945	1.08031	0.936491	0.672824	0.961559	1.20538	1.3808	1.50448	1.61132	1.68305	1.73382	1.70036	1.60196	1.4336	1.42366	1.45853	1.5032	1.61867	1.71578	1.87997	1.97898	2.06117	2.14991	2.1994	2.22169	2.2127	2.22296	2.26772	2.44325	2.36009	2.0904	1.67783	1.20829	0.896588	0.617771	0.434592	0.348579	0.400447	0.492496	0.598108	0.64119	0.517326	0.336005	0.110925	-0.14614	-0.277811	-0.381893	-0.472079	-0.516451	-0.530614	-0.511218	-0.467995	-0.408731	-0.336109	-0.266969	-0.156745	-0.0473963	0.0556112	0.136496	0.18824	0.17942	0.140962	0.0802201	0.0126612	0.0441147	0.0872079	0.0825655	0.114484	0.162422	0.335442
