Acq. time (s)=	4
Accumulations=	3
Range=	Off
Autofocus=	Off
SWIFT=	Off
AutoExposure=	Off
Spike filter=	Multiple accum.
Delay time (s)=	0
Binning=	1
Readout mode=	Signal
DeNoise=	Standard
ICS correction=	On
Dark correction=	Off
Inst. Process=	On
Instrument=	LabRAM S3000
Detector=	Synapse
Objective=	x100
Grating=	1800
ND Filter=	25%
Laser (nm)=	632.81 
Spectro (cm-¹)=	520.984
Slit=	100.021
Hole=	1000.03
Microscope=	Principal
StageXY=	Märzhauser
StageZ=	Märzhauser
X (µm)=	-20.1
Y (µm)=	-20
Z (µm)=	-1857.8
Project=	
Sample=	
Site=	
Title=	SOP_200nm_SPIS_p0.15_map
Remark=	
Date=	17.06.2019 13:48
Operator=	
Acquired=	17.06.2019 13:48:38
Base:Sub=	17.06.2019 13:50:27
		358.033	358.357	358.684	359.008	359.333	359.659	359.983	360.309	360.634	360.959	361.285	361.609	361.934	362.26	362.584	362.908	363.233	363.559	363.883	364.208	364.533	364.858	365.182	365.507	365.832	366.157	366.481	366.805	367.13	367.455	367.78	368.104	368.428	368.752	369.078	369.402	369.726	370.051	370.375	370.7	371.024	371.348	371.673	371.997	372.321	372.645	372.969	373.294	373.618	373.942	374.266	374.59	374.914	375.238	375.562	375.886	376.21	376.534	376.858	377.182	377.505	377.829	378.153	378.477	378.801	379.124	379.448	379.772	380.096	380.419	380.743	381.067	381.391	381.714	382.038	382.362	382.685	383.009	383.332	383.656	383.98	384.302	384.625	384.949	385.272	385.596	385.919	386.243	386.566	386.888	387.212	387.535	387.859	388.182	388.504	388.827	389.151	389.474	389.797	390.119	390.443	390.766	391.089	391.412	391.734	392.057	392.381	392.704	393.026	393.349	393.672	393.994	394.317	394.64	394.963	395.285	395.608	395.931	396.253	396.576	396.899	397.22	397.543	397.865	398.188	398.511	398.832	399.155	399.478	399.8	400.122	400.444	400.767	401.088	401.411	401.734	402.055	402.378	402.699	403.022	403.344	403.666	403.988	404.31	404.632	404.954	405.276	405.598	405.919	406.242	406.563	406.886	407.207	407.53	407.851	408.173	408.494	408.815	409.138	409.459	409.782	410.103	410.424	410.746	411.067	411.39	411.71	412.031	412.354	412.675	412.996	413.318	413.639	413.96	414.282	414.603	414.924	415.246	415.567	415.888	416.208	416.531	416.851	417.172	417.494	417.815	418.136	418.456	418.779	419.099	419.42	419.741	420.061	420.383	420.704	421.024	421.345	421.665	421.986	422.308	422.629	422.949	423.27	423.59	423.91	424.232	424.553	424.873	425.194	425.514	425.834	426.155	426.475	426.795	427.116	427.436	427.756	428.078	428.398	428.719	429.039	429.359	429.679	430	430.32	430.64	430.96	431.28	431.6	431.921	432.241	432.561	432.881	433.201	433.52	433.84	434.16	434.48	434.8	435.12	435.44	435.76	436.08	436.4	436.719	437.038	437.358	437.678	437.998	438.317	438.637	438.957	439.276	439.595	439.915	440.235	440.555	440.873	441.193	441.512	441.832	442.152	442.47	442.79	443.109	443.429	443.747	444.067	444.387	444.706	445.024	445.344	445.663	445.982	446.301	446.621	446.939	447.258	447.578	447.896	448.215	448.534	448.852	449.172	449.491	449.809	450.129	450.448	450.766	451.085	451.403	451.722	452.042	452.36	452.679	452.997	453.316	453.634	453.953	454.271	454.59	454.908	455.227	455.544	455.863	456.181	456.5	456.818	457.137	457.455	457.774	458.091	458.41	458.728	459.047	459.364	459.683	460.001	460.318	460.637	460.955	461.274	461.591	461.909	462.228	462.545	462.862	463.181	463.499	463.817	464.135	464.452	464.771	465.088	465.405	465.723	466.041	466.359	466.676	466.995	467.312	467.629	467.946	468.265	468.582	468.899	469.216	469.535	469.852	470.169	470.486	470.805	471.122	471.439	471.756	472.073	472.391	472.708	473.025	473.342	473.659	473.976	474.293	474.611	474.928	475.245	475.562	475.879	476.196	476.513	476.83	477.146	477.463	477.781	478.098	478.415	478.732	479.048	479.365	479.682	479.999	480.315	480.632	480.949	481.265	481.582	481.898	482.215	482.532	482.848	483.165	483.481	483.798	484.114	484.429	484.746	485.062	485.379	485.695	486.012	486.328	486.645	486.961	487.277	487.592	487.909	488.225	488.542	488.858	489.174	489.489	489.805	490.122	490.438	490.754	491.07	491.385	491.701	492.018	492.334	492.648	492.965	493.281	493.597	493.912	494.228	494.544	494.86	495.175	495.491	495.807	496.121	496.437	496.753	497.069	497.384	497.7	498.016	498.33	498.646	498.961	499.277	499.592	499.907	500.223	500.539	500.853	501.169	501.483	501.799	502.113	502.429	502.745	503.059	503.375	503.689	504.005	504.319	504.635	504.949	505.265	505.579	505.895	506.209	506.524	506.838	507.154	507.468	507.784	508.098	508.413	508.727	509.042	509.357	509.671	509.987	510.301	510.616	510.93	511.244	511.559	511.873	512.187	512.503	512.816	513.132	513.446	513.76	514.075	514.389	514.703	515.016	515.332	515.645	515.959	516.274	516.588	516.902	517.216	517.531	517.844	518.158	518.472	518.787	519.101	519.414	519.728	520.043	520.357	520.67	520.984	521.297	521.612	521.926	522.239	522.553	522.866	523.18	523.493	523.808	524.122	524.435	524.748	525.062	525.375	525.689	526.002	526.315	526.629	526.943	527.257	527.57	527.883	528.197	528.51	528.823	529.136	529.45	529.763	530.076	530.389	530.703	531.016	531.329	531.642	531.955	532.268	532.581	532.894	533.206	533.519	533.832	534.145	534.458	534.771	535.084	535.397	535.71	536.023	536.335	536.648	536.961	537.273	537.586	537.899	538.212	538.524	538.836	539.149	539.462	539.775	540.086	540.399	540.712	541.025	541.336	541.649	541.961	542.274	542.585	542.898	543.211	543.523	543.835	544.147	544.46	544.771	545.084	545.396	545.709	546.02	546.332	546.645	546.956	547.268	547.58	547.892	548.204	548.516	548.828	549.14	549.451	549.764	550.075	550.387	550.698	551.01	551.323	551.634	551.946	552.257	552.569	552.88	553.192	553.503	553.815	554.126	554.438	554.749	555.061	555.372	555.684	555.995	556.307	556.618	556.928	557.24	557.551	557.863	558.174	558.486	558.797	559.107	559.419	559.73	560.042	560.352	560.663	560.975	561.285	561.596	561.908	562.218	562.529	562.84	563.151	563.461	563.773	564.083	564.394	564.704	565.016	565.326	565.637	565.947	566.259	566.569	566.879	567.19	567.501	567.811	568.122	568.432	568.742	569.054	569.364	569.674	569.984	570.294	570.604	570.915	571.226	571.536	571.846	572.156	572.466	572.776	573.086	573.396	573.708	574.018	574.328	574.638	574.948	575.258	575.568	575.878	576.187	576.497	576.807	577.117	577.427	577.737	578.047	578.356	578.666	578.976	579.286	579.596	579.905	580.215	580.525	580.834	581.144	581.452	581.762	582.072	582.381	582.691	583.001	583.31	583.62	583.93	584.238	584.547	584.857	585.166	585.476	585.785	586.095	586.403	586.712	587.022	587.331	587.641	587.949	588.258	588.568	588.877	589.185	589.494	589.804	590.113	590.421	590.73	591.039	591.347	591.657	591.966	592.275	592.583	592.892	593.201	593.509	593.818	594.128	594.435	594.744	595.052	595.361	595.67	595.978	596.287	596.596	596.904	597.213	597.521	597.83	598.137	598.446	598.755	599.063	599.372	599.679	599.988	600.296	600.605	600.912	601.221	601.528	601.837	602.145	602.453	602.761	603.07	603.377	603.684	603.993	604.301	604.609	604.917	605.225	605.533	605.84	606.149	606.456	606.763	607.072	607.379	607.688	607.995	608.302	608.611	608.918	609.225	609.533	609.841	610.148	610.455	610.763	611.07	611.377	611.686	611.993	612.3	612.607	612.915	613.222	613.529	613.836	614.145	614.452	614.759	615.065	615.372	615.681	615.988	616.294	616.601	616.908	617.215	617.522	617.83	618.137	618.443	618.75	619.057	619.364	619.67	619.977	620.284	620.592	620.899	621.205	621.512	621.819	622.125	622.432	622.738	623.045	623.352	623.658	623.965	624.271	624.578	624.884	625.191	625.497	625.804	626.11	626.417	626.723	627.03	627.336	627.641	627.947	628.254	628.56	628.867	629.173	629.479	629.786	630.092	630.398	630.703	631.009	631.316	631.622	631.928	632.234	632.539	632.845	633.151	633.458	633.764	634.068	634.375	634.681	634.987	635.292	635.598	635.904	636.21	636.514	636.82	637.126	637.432	637.737	638.043	638.349	638.654	638.96	639.265	639.57	639.876	640.182	640.486	640.792	641.097	641.402	641.708	642.013	642.319	642.624	642.929	643.234	643.539	643.845	644.149	644.455	644.759	645.065	645.37	645.675	645.98	646.285	646.59	646.894	647.2	647.504	647.81	648.114	648.42	648.724	649.028	649.333	649.638	649.943	650.247	650.553	650.857	651.161	651.466	651.77	652.076	652.38	652.684	652.989	653.293	653.597	653.902	654.206	654.51	654.815	655.119	655.423	655.729	656.032	656.336	656.641	656.945	657.249	657.553	657.858	658.162	658.466	658.769	659.074	659.378	659.682	659.986	660.289	660.594	660.898	661.202	661.505	661.809	662.114	662.418	662.721	663.025	663.328	663.632	663.935	664.239	664.544	664.847	665.151	665.454	665.758	666.061	666.365	666.668	666.972	667.275	667.578	667.882	668.185	668.489	668.792	669.095	669.398	669.702	670.005	670.308	670.612	670.915	671.218	671.521	671.825	672.128	672.431	672.734	673.037	673.341	673.644	673.947	674.249	674.552	674.855	675.158	675.461	675.764	676.067	676.369	676.672	676.975	677.278	677.581	677.884	678.185	678.488	678.791	679.094
-20	-20.0732	59.1013	57.7749	56.364	54.9634	53.4061	51.8168	50.2139	48.5878	46.8935	45.1874	43.4735	41.792	40.1685	38.575	36.9661	35.3828	33.8489	32.3584	30.9363	29.556	28.2528	26.9882	25.7924	24.6535	23.5063	22.4551	21.411	20.3706	19.2952	18.2813	17.3133	16.6095	15.6895	14.6751	13.6262	12.6593	11.7086	10.8421	10.0644	9.39404	8.87815	8.46116	8.1511	7.67404	6.94664	6.16828	5.61521	5.14552	4.78154	4.47091	4.1634	3.91155	3.67113	3.43567	3.17823	2.94292	2.7694	2.73768	2.93518	2.88429	2.78029	2.67432	2.55608	2.3831	2.12756	1.74604	1.25427	0.687424	0.126539	-0.397012	-0.665372	-0.836079	-0.931033	-0.985141	-1.0437	-0.999716	-0.734323	-0.0286846	0.191012	0.233437	-0.0405457	0.06275	0.166349	0.256975	0.29994	0.33224	0.344891	0.374521	0.401365	0.42323	0.431338	0.433221	0.425249	0.355515	0.152768	0.0586076	-0.00521909	-0.0190851	-0.0261124	0.00539522	0.178706	0.466002	0.817688	1.22084	1.65548	2.0965	2.52965	2.98034	3.42481	3.83147	4.22325	4.56881	4.78871	4.96568	5.12426	5.27149	5.36671	5.41672	5.40686	5.35536	5.23852	5.08618	4.93566	4.72697	4.53397	4.3955	4.29641	4.28249	4.38879	4.54101	4.75904	5.02171	5.30659	5.63212	5.94752	6.28281	6.65892	6.99141	7.20893	7.26927	7.27333	7.20341	7.08999	6.98964	6.9909	7.07437	7.27789	7.63411	8.04988	8.56656	9.16091	9.75488	10.3117	10.8699	11.3236	11.733	12.1618	12.647	13.1185	13.5679	14.0083	14.4141	14.7957	15.1199	15.4202	15.702	15.9663	16.2547	16.5904	16.937	17.3068	17.6911	18.0929	18.5149	18.9449	19.5486	20.1287	20.6633	21.1302	21.3034	21.2954	21.0514	20.6336	19.9565	19.5679	19.2041	19.3703	19.2493	19.1249	18.9477	18.7895	18.6423	18.5002	18.3733	18.2525	18.2392	18.2849	18.3183	18.3476	18.3167	18.2548	18.0457	17.8253	17.5796	17.3205	17.0763	16.7962	16.4912	16.1993	15.9168	15.7143	15.5762	15.4731	15.4231	15.4302	15.5202	15.6346	15.8393	16.0587	16.247	16.2948	16.2202	16.0599	15.8118	15.4286	14.9143	14.3676	13.8123	13.2955	12.8283	12.4467	12.1116	11.8152	11.6165	11.4731	11.3481	11.2394	11.1216	10.9878	10.825	10.6713	10.53	10.4214	10.2902	10.1244	9.94027	9.73762	9.54453	9.3326	9.09629	8.79241	8.41478	7.94428	7.41876	6.97806	6.64378	6.43321	6.38278	6.43461	6.48908	6.53407	6.55492	6.54846	6.5416	6.42567	6.32694	6.20438	6.06564	5.87346	5.62851	5.37144	5.09795	4.84574	4.62495	4.44587	4.31201	4.2972	4.29339	4.36276	4.42416	4.32832	4.18545	4.03375	3.83935	3.62317	3.4202	3.18282	2.9662	2.73841	2.54365	2.39321	2.31603	2.19197	2.01764	1.83405	1.76581	1.8147	1.8675	1.91609	1.90626	1.62031	1.51604	1.43432	1.33969	1.23313	1.05866	0.851899	0.643182	0.465982	0.308586	0.228441	0.216892	0.228725	0.248308	0.261189	0.268324	0.262009	0.157868	0.0434409	-0.151808	-0.307528	-0.46224	-0.581618	-0.651633	-0.635175	-0.576517	-0.480177	-0.33463	-0.133876	0.290749	0.689501	1.06437	1.34757	1.54375	1.62005	1.62386	1.55908	1.43522	1.32513	1.34606	1.4823	1.71747	1.99816	2.30942	2.62427	2.9109	3.15828	3.29194	3.36376	3.64816	4.026	4.44458	4.97937	5.64057	6.34731	7.15896	8.04199	9.02217	9.56164	9.52308	10.0165	11.2876	12.4491	13.4475	14.4248	15.3986	16.3807	17.4061	18.4697	19.5264	20.5547	21.5751	22.1183	23.5343	25.2719	26.928	28.4421	29.8139	31.0695	32.2181	33.2614	34.2487	35.5198	36.9938	38.7138	40.5303	42.4306	44.4237	46.4906	48.0746	49.934	51.7515	53.5873	55.386	57.1166	58.7892	60.4181	61.9649	63.3951	64.6948	65.7924	66.6823	67.4596	68.1968	68.7773	69.3296	69.7201	70.0041	70.0424	69.8604	69.5524	69.1282	68.5724	67.9536	67.2515	66.3803	65.3797	64.2626	63.0761	61.845	60.6043	59.4405	58.4873	57.6489	56.8772	56.1125	55.3574	54.6461	53.8129	52.8599	51.8237	50.6779	49.4737	48.2695	47.0119	45.6399	44.2469	42.8363	41.5089	40.2134	38.917	37.6937	36.6206	35.6025	34.5534	33.4843	32.4239	31.3753	30.3892	29.424	28.478	27.7015	26.9333	26.1893	25.4357	24.64	23.8493	23.0613	22.2769	21.3869	20.4946	19.6276	18.8057	18.0437	17.4106	16.8497	16.4191	16.0988	15.9105	15.8566	15.8968	16.0424	16.2518	16.5159	16.8846	17.395	18.1217	18.9206	20.039	19.9641	19.9951	20.0029	20.0571	19.4751	19.9	20.2586	20.8337	21.2969	22.2881	23.1708	24.0006	25.2704	26.4328	27.857	30.0449	33.0263	36.9569	41.8699	49.6838	57.7864	68.3982	83.3298	109.801	125.402	156.369	183.837	210.878	225.26	210.548	179.327	147.983	121.174	100.134	80.5752	64.7576	52.7473	42.3109	34.6408	28.948	24.9053	22.0545	19.8004	17.454	14.5622	13.3016	11.9447	10.6801	9.48944	8.09741	7.2739	6.40883	5.68671	5.27928	4.7654	4.30327	3.90433	3.65905	3.57428	3.35044	3.09886	2.83726	2.58816	2.27906	1.97573	1.67148	1.39041	1.14621	0.969734	0.857432	0.696949	0.55378	0.390889	0.303224	0.219144	0.190005	0.179133	0.174856	0.21681	0.318538	0.430253	0.53217	0.601632	0.577735	0.546933	0.474421	0.361984	0.252209	0.167483	0.132536	0.0703608	-0.00394357	-0.128158	-0.280599	-0.386001	-0.425906	-0.420057	-0.415021	-0.348429	-0.254008	-0.159185	-0.026572	0.0718535	0.157863	0.22182	0.294046	0.379683	0.477711	0.52073	0.591597	0.587626	0.426126	0.235318	-0.00859113	-0.272603	-0.519603	-0.755609	-0.97423	-1.15571	-1.2938	-1.38971	-1.41152	-1.34426	-1.2182	-1.02451	-0.810607	-0.528107	-0.22469	0.101851	0.396448	0.675595	0.879	1.01025	1.06099	0.952892	0.7848	0.560988	0.340527	0.277784	0.256943	0.327159	0.453848	0.592923	0.634309	0.634115	0.646945	0.644285	0.644514	0.63821	0.617108	0.641831	0.560678	0.492392	0.427433	0.374886	0.315725	0.240435	0.161961	0.0769505	0.133513	0.259721	0.421124	0.571181	0.682944	0.738864	0.82239	0.892777	0.950022	0.96996	0.826759	0.673149	0.516935	0.374946	0.264138	0.14757	0.0486558	-0.0173212	0.0331517	0.223015	0.663098	1.19791	1.77822	2.13309	2.18434	2.0849	1.7166	1.51025	1.38722	1.31711	1.21626	1.26715	1.25146	1.24436	1.10901	0.95916	0.803129	0.663075	0.571976	0.486336	0.417656	0.340224	0.281305	0.202888	0.0986025	0.0675708	0.0320272	0.00684974	-0.0319514	-0.0588669	-0.0810763	-0.0744054	-0.0703339	-0.0378837	0.00425259	0.0368967	0.0801342	0.0575459	-0.0129605	-0.118633	-0.074167	0.117805	0.259302	0.329119	0.35467	0.325712	0.195832	0.0624167	-0.0882474	-0.182943	-0.299858	-0.35696	-0.376743	-0.308309	-0.173406	-0.0222086	0.106876	0.242623	0.336759	0.425748	0.452472	0.459964	0.374373	0.254007	0.0796247	-0.113772	-0.373733	-0.694427	-0.907765	-0.967446	-0.991583	-1.01151	-1.01569	-0.986335	-0.967409	-0.90266	-0.792587	-0.65307	-0.470369	-0.250012	0.0290117	0.319736	0.628054	0.929247	1.23445	1.48316	1.69351	1.88575	2.0555	2.21373	2.3567	2.43952	2.40753	2.43243	2.44916	2.46831	2.48838	2.49559	2.45757	2.37037	2.26056	2.12808	1.95961	1.78341	1.56925	1.35755	1.20471	1.05725	0.956231	1.0163	1.04002	1.06729	1.12556	1.19925	1.27296	1.28467	1.22226	1.11327	1.12245	1.13657	1.18541	1.23398	1.31464	1.39382	1.48095	1.53821	1.5931	1.5649	1.37619	1.22703	1.1214	1.13033	1.1419	1.19173	1.26873	1.36699	1.50851	1.66249	1.81586	1.969	2.09985	2.2347	2.37423	2.52737	2.70318	2.89487	3.03484	3.18586	3.35277	3.50404	3.71204	3.8916	4.17008	4.52386	4.95418	5.39521	5.86367	6.25295	6.60478	6.85387	7.08907	7.32659	7.60154	7.95753	8.31162	8.73741	9.17462	9.61091	10.0745	10.5293	10.9817	11.4448	11.9679	12.4926	12.9971	13.512	13.9876	14.4553	14.8501	15.2518	15.5094	15.7765	16.1345	16.4968	16.9918	17.6146	18.3485	19.1311	19.9519	20.7797	21.4259	22.1646	22.9312	23.6888	24.3981	25.0545	25.4913	25.828	26.138	26.5057	26.8663	27.6417	27.969	28.1706	28.3034	28.4108	28.4967	28.5068	28.4168	28.3863	28.4527	28.723	29.3301	29.8655	30.088	30.7247	31.7387	32.8795	34.6629	35.7358	35.6384	35.0083	33.4234	27.9647	25.3442	22.8211	21.4982	19.9148	18.4813	16.7692	16.9551	16.1905	16.414	16.2503	16.1798	16.2519	16.4387	16.7196	17.0298	17.3688	17.7334	17.9601	18.0727	17.9708	17.7889	17.4609	17.0021	16.2903	15.4249	14.4235	13.4335	12.3545	11.2688	10.2075	9.17162	8.18312	7.22776	6.32923	5.45487	4.71558	4.00868	3.35184	2.73513	2.10499	1.56089	1.07734	0.666925	0.284346	-0.0373734	-0.277731	-0.353701	-0.36493	-0.334823	-0.179259	-0.130152	-0.0614949	0.0392253	0.0359232	0.0166669	-0.0116151	-0.0733399	-0.151313	-0.165102	-0.150999	-0.0286617	0.091803	0.209396	0.330232	0.447724	0.543526	0.639722	0.696671	0.69805	0.657749	0.584119	0.49308	0.38511	0.275853	0.127277	-0.0218529	-0.187024	-0.242551	-0.295461	-0.172682	-0.12705	-0.0609664	0.00435736	0.112662	0.233129	0.460438	0.76535	1.08946	1.40149	1.68078	1.84044	1.93915	2.00817	2.02014	1.99775	1.92868	1.83109	1.71388	1.56132	1.35616	1.1301	0.888721	0.655427	0.42029	0.172588	-0.0250314	-0.27666	-0.700039	-1.19352	-1.36504	-1.35278	-1.24015	-1.01311	-0.735912	-0.359085	0.00632158	0.35714	0.614695	-0.236205	0.0588031	0.36518	0.709949	0.999866	1.08617	1.05529	1.07718	1.02611	0.942966	0.742837	0.338839	0.0446292	0.0592772	0.305285	0.631744	1.04016	1.44907	1.81977	2.1333	2.44054	3.02944	3.07746	3.34062
-20	-0.0366178	62.7079	60.3813	58.0654	55.4399	54.3091	53.1772	50.1057	44.6266	46.0474	45.6204	43.7562	41.714	40.2836	39.0212	38.2375	36.9246	35.4672	33.8981	32.2305	30.3762	28.5228	26.825	25.2733	23.8544	22.5535	21.5407	20.5298	19.7188	19.1312	18.5386	17.974	17.3795	16.6923	15.9108	15.0246	13.6656	12.6677	11.7391	10.9081	10.1211	9.39649	8.71768	8.09074	7.51782	6.969	6.45984	5.96387	5.42627	5.08532	4.79302	4.56361	4.38409	3.98186	3.37637	2.80669	2.22295	1.63802	1.20889	0.590943	0.0940422	-0.19743	-0.297534	0.0941867	0.275777	-0.164722	-0.192492	-0.221463	-0.0592481	-0.0039054	0.018168	-0.0270123	-0.114973	-0.217588	-0.287083	-0.303911	-0.126807	-0.0263814	-0.00623025	-0.000595825	0.0311109	0.00620687	0.0607828	0.0943575	0.133704	0.112635	0.0152071	-0.196542	-0.290339	-0.319041	-0.25031	-0.109151	0.0868742	0.260099	0.506243	0.759448	1.02528	1.28384	1.55535	1.78543	1.9728	2.17422	2.37277	2.61125	2.80143	2.85322	2.82471	2.82819	2.83848	2.92045	2.96022	3.02768	3.09433	3.15247	3.23206	3.32188	3.42077	3.5298	3.64414	3.75996	3.87866	4.0025	4.14833	4.30031	4.29926	4.33485	4.51271	4.77429	5.07413	5.39553	5.65188	5.89962	6.13131	6.34336	6.511	6.67736	6.83529	7.02381	7.09936	7.04284	6.98253	6.9022	6.78541	6.66585	6.48765	6.31592	6.0752	6.05203	5.9669	6.09724	6.38061	6.82822	7.46026	8.07267	8.8709	9.60544	10.2291	10.7793	11.2634	11.6716	11.9698	12.0611	12.4657	12.9152	13.3818	13.8709	14.4221	14.9887	15.5371	16.0893	16.617	17.1458	17.6461	17.9068	18.25	18.4465	18.5931	18.8807	19.0627	19.0974	19.1339	19.1141	19.012	18.9145	18.7988	18.6519	18.4229	17.9755	17.6264	17.3535	17.1559	17.0482	16.9716	16.9452	16.9282	16.9357	16.9667	16.9707	16.9416	16.8662	16.7835	16.7108	16.6222	16.4836	16.3596	16.2557	16.2489	16.3011	16.2184	16.1232	16.033	15.9597	15.8145	15.5207	15.1521	14.7476	14.3348	13.9511	13.5044	13.0854	12.6423	12.3583	12.23	12.2019	12.2433	12.3102	12.4258	12.5528	12.6977	12.8598	12.9868	13.0486	13.0133	12.9581	12.8629	12.739	12.6164	12.3945	12.1573	11.8968	11.6536	11.4832	11.3059	11.106	10.8737	10.597	10.2002	9.76444	9.08744	8.71528	8.36626	8.16802	8.33447	8.23267	8.14974	8.11618	7.97603	7.83162	7.72207	7.57644	7.39413	7.23731	7.1431	7.05197	6.96285	6.87328	6.75602	6.5989	6.45073	6.26113	6.04664	5.8229	5.56957	5.30551	5.00785	4.71367	4.41823	4.16341	4.09182	4.02321	3.99975	4.00708	4.10528	4.32541	4.31571	4.26123	4.11848	3.93678	3.73233	3.49054	3.23556	2.9658	2.69724	2.4526	2.20774	1.95664	1.7429	1.53962	1.36507	1.17529	0.974417	0.736074	0.501281	0.224277	-0.010227	-0.203997	-0.286059	-0.30723	-0.354614	-0.343793	-0.338724	-0.355529	-0.436396	-0.518561	-0.555727	-0.608962	-0.62442	-0.591331	-0.531539	-0.466668	-0.430701	-0.364236	-0.18208	0.185173	0.38192	0.424798	0.459956	0.496139	0.542953	0.597035	0.688603	0.771339	0.903357	1.06437	1.43982	1.65811	1.87205	2.1007	2.37499	2.6535	2.94644	3.26302	3.56279	3.87554	4.41628	4.73533	5.08294	5.37882	5.66031	5.98927	6.2238	6.50099	6.81437	7.03072	7.35779	7.70626	8.0558	8.29582	8.96928	9.6119	10.4498	11.1814	12.2186	12.6085	13.2446	13.3106	15.385	16.8805	18.1094	19.1976	20.231	21.1977	22.2426	23.3084	24.4018	25.4974	26.5489	27.808	29.153	30.5044	31.7836	33.1555	34.7301	36.4916	38.2784	40.1074	41.9167	43.9321	45.8129	47.7925	49.8107	51.8184	53.8551	55.7367	57.2224	58.6412	60.0192	61.4255	62.7407	63.9099	64.9635	65.6058	66.491	67.3535	68.2377	69.2126	69.9413	70.4308	70.7177	70.8796	70.6696	70.2648	69.5198	68.9478	68.4007	68.2077	67.669	66.7596	65.717	64.5485	63.3891	62.252	61.2272	60.3078	59.4544	58.595	57.7367	56.9314	56.0549	55.1154	54.0875	53.0032	51.9279	50.8747	49.8146	48.7267	47.5376	46.3278	45.2572	44.1789	43.0616	41.9057	40.7668	39.6229	38.4323	37.1309	35.8745	34.6245	33.3513	32.0604	30.6851	29.3934	28.2758	27.2915	26.3931	25.4712	24.6452	23.8456	23.0812	22.2481	21.4716	20.7895	20.2161	19.6992	19.1209	18.5482	17.9831	17.4612	17.0411	16.6965	16.4511	16.4042	16.494	16.6554	16.8382	17.0562	17.2074	17.5626	17.9614	18.3866	18.8002	19.3199	19.743	20.3787	21.1203	21.7916	22.7151	23.0257	23.4239	23.2663	23.3508	23.8239	24.9853	25.6281	26.8527	29.4279	32.4969	36.2828	41.3711	48.8905	59.1759	72.5029	86.9094	106.197	128.925	153.95	179.373	208.736	227.885	203.979	176.15	150.984	123.015	97.5817	77.0922	61.8179	49.8402	39.4369	33.0144	28.5015	24.8756	21.8301	19.7018	16.4715	15.3929	15.0344	13.8033	12.7482	11.593	10.6272	9.73551	8.92163	8.18802	7.58951	7.10096	6.55612	6.09111	5.7611	5.54758	5.438	5.37043	5.3414	5.32068	5.27438	5.15793	4.94594	4.68689	4.37925	4.01928	3.59364	3.01322	2.64327	2.3157	2.03009	1.66486	1.3792	1.1849	1.09668	1.0807	1.13917	1.25028	1.3971	1.47116	1.49489	1.5206	1.45738	1.34382	1.20416	1.02884	0.870029	0.7576	0.64874	0.563787	0.488165	0.447904	0.45713	0.518031	0.583914	0.637239	0.603498	0.590375	0.546563	0.411045	0.275877	0.1049	-0.0830161	-0.264245	-0.292146	-0.379162	-0.465372	-0.53782	-0.585303	-0.596216	-0.573492	-0.476367	-0.356029	-0.281599	-0.305882	-0.329089	-0.344597	-0.294647	-0.283383	-0.178717	-0.0555836	0.0859215	0.156551	0.229347	0.265371	0.312145	0.349102	0.373303	0.399674	0.416474	0.430671	0.441295	0.439092	0.425158	0.399403	0.346735	0.257611	0.312872	0.232609	0.089391	-0.0150363	-0.152037	-0.327012	-0.498608	-0.661395	-0.818201	-1.0156	-1.18541	-1.26795	-1.22834	-0.998777	-0.878797	-0.732401	-0.594325	-0.448645	-0.286442	-0.118258	0.0621402	0.23698	0.355256	0.514491	0.842846	1.2301	1.60585	1.83934	1.8917	1.71265	1.51557	1.42888	1.47324	1.61116	1.79602	2.29374	2.47513	2.16919	2.11928	2.0153	2.00057	2.03655	2.13503	2.26324	2.37954	2.3292	2.2225	2.11411	2.12278	2.15538	2.18379	2.1803	2.08448	1.97937	1.84792	1.70731	1.57303	1.42504	1.31967	1.2267	1.15207	1.09421	1.03388	0.969358	0.886067	0.950608	0.86567	0.760094	0.664428	0.609921	0.591013	0.583187	0.59359	0.632232	0.710253	0.792588	0.844603	0.98299	1.18042	1.36877	1.55751	1.74797	1.9146	1.98038	1.95027	1.80911	1.47798	1.22855	0.937119	0.43681	0.0833631	-0.231677	-0.474357	-0.613232	-0.699042	-0.697123	-0.636863	-0.590449	-0.642931	-0.778691	-1.04479	-1.31809	-1.44307	-1.52217	-1.60871	-1.75968	-1.98609	-2.06293	-2.04519	-1.87817	-1.61651	-1.19924	-0.75237	-0.35806	-0.0182394	0.294749	0.580109	0.756268	0.849316	0.864699	0.825262	0.801128	0.720277	0.635755	0.513259	0.395067	0.295553	0.232216	0.418757	0.715795	0.988518	1.19439	1.35903	1.47051	1.47839	1.4485	1.49654	1.50367	1.44948	1.27892	1.10346	0.930162	0.751089	0.602224	0.490905	0.439333	0.573986	0.801787	1.08701	1.39147	1.6894	1.90468	2.05	2.13282	2.23878	2.40646	2.4069	2.33859	2.25329	2.07143	1.90554	1.74017	1.57353	1.41705	1.3178	1.23606	1.16443	1.12321	1.10122	1.10154	1.10267	1.16493	1.27598	1.41253	1.62791	1.81468	2.0108	2.14099	2.30452	2.42355	2.62689	2.86995	3.12382	3.39154	3.67715	3.93515	4.24785	4.56598	4.8361	5.00816	5.15774	5.28884	5.44426	5.60464	5.79573	6.00922	6.25242	6.4854	6.74862	7.00691	7.37765	7.86711	8.30487	8.59976	8.86141	9.09474	9.32479	9.5559	9.79664	10.045	10.3173	10.6156	10.9354	11.2952	11.6743	12.0418	12.4725	13.0762	13.7871	14.5664	15.3673	16.1012	16.696	17.2849	17.8544	18.4271	19.0141	19.7218	20.5927	21.749	22.2185	22.527	22.8397	23.2374	23.6623	24.1409	24.6797	25.3029	25.9882	26.6885	27.1906	27.692	28.1749	28.5747	28.7881	28.9692	29.0024	29.2876	29.1358	29.0189	28.8928	28.8962	28.9236	29.2523	29.7753	30.9078	32.9149	39.5858	34.4857	36.1931	35.093	33.5017	30.6858	28.0072	24.9296	22.744	20.7404	19.2448	17.7891	16.5275	16.4555	16.0109	15.7048	15.6541	15.7712	16.0265	16.2989	16.6821	16.8636	17.3243	17.4451	17.8027	18.0542	18.1233	17.9773	17.6418	17.077	16.2349	15.1271	14.0401	12.8921	11.3426	10.1467	8.99231	7.83237	6.66158	5.51112	4.56154	3.7614	3.06321	2.44202	1.89892	1.41471	0.985411	0.63573	0.328371	0.0829431	-0.113835	-0.211201	-0.323259	-0.408476	-0.517077	-0.593362	-0.691959	-0.7379	-0.790535	-0.838887	-0.876524	-0.919482	-0.949368	-0.954386	-0.773064	-0.685507	-0.639414	-0.572339	-0.448029	-0.236905	-0.00140625	0.253337	0.507887	0.710998	0.987578	1.24669	1.49134	1.63852	1.59505	1.54719	1.45256	1.2087	0.948192	0.689986	0.482161	0.357893	0.324612	0.373288	0.488537	0.631284	0.6788	0.673237	0.907254	1.24192	1.68028	2.11166	2.33637	2.43812	2.38766	2.30128	2.21233	2.08304	1.89407	1.67625	1.43688	1.14547	0.796471	0.460817	0.159049	-0.118162	-0.224547	-0.139645	0.0163257	0.29181	0.535712	0.721863	0.845353	0.940788	1.00127	1.05985	1.16914	1.25011	1.25646	1.21231	1.05767	0.835801	0.578461	0.293057	-0.0190439	-0.307839	-0.546093	-0.721073	-0.818509	-0.863849	-0.867575	-0.835474	-0.74269	-0.57914	-0.311815	0.0416661	0.433711	0.885691	1.42219	2.12125	2.91109	3.78454	4.40398	4.77102
-20	20	49.9899	48.6463	47.2113	45.7754	44.1996	42.4423	40.6854	38.9805	37.3251	35.7402	34.1817	32.6882	31.2421	29.8539	28.5222	27.2502	26.035	24.8748	23.7808	22.7582	21.7741	20.8685	20.0118	19.2222	18.3873	17.5145	16.7307	15.9845	15.3002	14.6059	13.9367	13.2944	12.6762	12.1009	11.5444	11.0196	10.512	9.96544	9.46245	8.96499	8.47113	7.99081	7.45492	6.89987	6.34826	5.73297	5.18937	4.72207	4.28765	3.87767	3.48544	3.0918	2.67826	2.26399	1.84	1.45855	1.10828	0.808495	0.588317	0.332481	0.0985524	-0.114708	-0.287324	-0.369961	-0.329608	-0.149011	-0.0866969	-0.124155	-0.129673	-0.149987	-0.165175	-0.178994	-0.0195766	0.0352165	0.135082	0.188724	0.227608	0.220501	0.218137	0.187578	0.161371	0.129766	0.0958996	0.0391504	-0.0443315	-0.142235	-0.223549	-0.317226	-0.371668	-0.281379	-0.0735913	0.182268	0.491663	0.838225	1.12699	1.34164	1.5044	1.66526	1.78981	1.90992	2.01367	2.11806	2.23279	2.35148	2.48096	2.62581	2.82232	3.08519	3.38243	3.70447	4.01635	4.37343	4.69504	4.95265	5.10181	5.16775	5.16838	5.12538	4.96927	4.70406	4.42706	4.1367	3.86396	3.64434	3.52688	3.49602	3.5279	3.5989	3.69028	3.77128	3.88285	3.97737	4.11572	4.26113	4.38755	4.52761	4.68618	4.7944	4.90591	5.02944	5.16553	5.33061	5.51106	5.68537	5.91389	6.14797	6.40305	6.58567	6.69795	6.82326	6.95879	7.16271	7.38161	7.6185	7.87174	8.13604	8.44696	8.78891	9.17697	9.59843	10.0715	10.5589	11.0887	11.6862	12.2833	12.9116	13.5016	14.0294	14.4468	14.7934	15.0377	15.2888	15.4746	15.6573	15.8293	16.0847	16.3295	16.6456	16.8186	16.9405	16.8848	16.8089	16.7057	16.5595	16.4009	16.2617	16.0935	16.2452	16.3564	16.4323	16.4442	16.3167	16.1271	15.8751	15.5282	15.1203	14.7197	14.3865	14.1003	13.8475	13.6966	13.5633	13.3988	13.2683	13.164	13.2102	13.2505	13.2873	13.2493	13.1874	13.1464	12.9976	12.8468	12.6663	12.4885	12.3217	12.169	11.9959	11.8194	11.627	11.4503	11.2733	11.0946	10.9052	10.7122	10.4966	10.295	10.1513	10.0595	9.99184	10.007	9.98921	9.95381	9.88869	9.80954	9.59056	9.39685	9.18867	8.96759	8.73736	8.40765	8.00667	7.50618	7.0758	6.63214	6.24787	5.94262	5.70513	5.53948	5.44134	5.35357	5.32983	5.42688	5.55404	5.61184	5.57807	5.46175	5.38687	5.89303	5.30172	4.54607	3.81997	3.41934	3.59499	3.65479	3.40014	3.61864	4.15169	4.67464	5.42356	2.92147	2.63235	2.88879	2.83456	2.938	2.43588	2.42879	2.48093	2.57586	2.66266	2.70571	2.65665	2.51031	2.3113	2.07218	1.79511	1.57911	1.39213	1.07584	0.739138	0.393516	0.0828652	-0.134241	-0.31393	-0.404429	-0.443601	-0.322122	-0.141889	0.0506169	0.254031	0.411086	0.574289	0.657058	0.700517	0.717419	0.693454	0.623685	0.525854	0.392929	0.224711	-0.0207507	-0.251084	-0.414736	-0.537946	-0.568492	-0.538297	-0.459654	-0.329517	-0.0942452	0.139796	0.21246	0.265761	0.274087	0.230962	0.185907	0.109358	0.0069913	-0.0955323	-0.177202	-0.275472	-0.343534	-0.378551	-0.337877	-0.220339	-0.0283039	0.227845	0.529031	0.883557	1.26336	1.66446	2.10838	2.6127	3.13149	3.61124	4.08409	4.50118	4.90129	5.25206	5.57435	5.84618	6.0855	6.21764	6.29057	6.37297	6.53266	6.93875	7.47202	8.15197	9.00064	9.97866	11.0054	12.0947	13.1994	14.2944	15.3615	16.3073	17.1911	17.9436	18.6425	19.4213	20.2994	21.3607	22.4731	23.7409	25.0248	26.3466	27.6988	29.0437	30.4534	31.852	33.3015	34.7882	36.3579	38.0034	39.7028	41.492	43.35	45.3102	47.2655	49.2851	51.2907	53.2323	55.0241	56.5888	58.053	59.4056	60.6349	61.8105	62.9502	64.0872	65.2039	66.2817	67.3515	68.3537	69.3825	70.4303	71.4328	72.3831	73.215	73.7769	73.9246	73.8541	73.5031	72.8876	72.1177	71.2503	70.4567	69.6242	68.7289	67.7396	66.7038	65.4788	64.0746	62.6507	61.3065	59.997	58.6591	57.3422	56.0423	54.756	53.4761	52.2291	50.9763	49.8899	48.9603	47.9862	47.0083	45.9717	44.7212	43.0938	41.6603	40.267	39.0079	37.8997	37.3428	36.3479	35.3391	34.3065	33.2625	32.2021	31.1009	30.0542	29.0013	27.9803	26.9563	25.9201	24.8243	23.663	22.5323	21.4661	20.4628	19.6247	19.2453	18.9885	18.7273	18.5292	18.3917	18.2653	18.1346	18.0075	17.9036	17.8228	17.7576	17.7413	17.6939	17.7925	18.1261	18.6024	19.2599	20.0044	20.8106	21.5734	22.2888	22.8889	23.3879	23.8091	24.6438	24.802	24.2539	24.2404	24.5637	25.189	26.3649	27.7801	29.8687	32.5271	36.1515	41.1408	47.2333	57.6264	70.1145	84.7216	102.189	122.95	148.256	175.245	200.116	208.038	197.279	166.744	139.984	116.982	93.7426	77.2653	61.721	49.5062	39.8438	32.8239	27.352	23.6525	20.1711	16.9462	14.2441	12.96	12.1197	11.2588	10.6966	9.6317	8.98736	8.3371	7.70293	7.06845	6.49962	5.97556	5.50528	5.01358	4.51967	3.80913	3.49694	3.27884	3.11719	2.9828	2.87848	2.79817	2.68312	2.55972	2.43257	2.29167	2.11404	1.94091	1.8415	1.7583	1.70957	1.65414	1.60224	1.49443	1.424	1.28481	1.20497	1.14163	1.11368	1.00188	0.839957	0.711041	0.634651	0.579368	0.64925	0.680964	0.861933	1.05793	1.07923	1.08964	1.07499	1.04638	0.986794	0.85756	0.686492	0.511936	0.318731	0.234075	0.233205	0.364085	0.498885	0.393045	0.213664	0.0676099	-0.0448645	-0.117382	-0.123466	-0.105259	-0.087633	-0.0696928	-0.0238279	-0.0458035	-0.0973186	-0.237684	-0.28822	-0.27372	-0.273472	-0.274647	-0.34687	-0.464586	-0.588079	-0.731951	-0.833166	-0.813844	-0.698823	-0.594282	-0.488021	-0.407095	-0.343221	-0.325772	-0.319622	-0.275655	-0.169272	-0.0657256	0.0420541	0.113679	0.142943	0.0998618	-0.00252443	-0.0888396	-0.209026	-0.320927	-0.40608	-0.482732	-0.503181	-0.494646	-0.444357	-0.549702	-0.463269	-0.251281	-0.0152546	0.199559	0.388549	0.511848	0.546661	0.512293	0.455217	0.386864	0.312173	0.217921	0.128789	0.0508838	0.0368359	0.128954	0.372522	0.60241	0.882075	1.06804	1.19255	1.24391	1.29883	1.31091	1.27386	1.19159	1.08276	0.946447	0.826933	0.755341	0.753941	0.768497	0.862165	0.967905	1.10412	1.24821	1.39173	1.51362	1.57911	1.67055	1.69337	1.64059	1.56769	1.31761	1.0298	0.663842	0.248028	-0.123193	-0.291831	-0.456817	-0.560627	-0.527819	-0.403054	-0.218563	-0.0406124	0.161349	0.382914	0.63714	0.875412	1.00703	1.07886	0.993433	0.839864	0.690919	0.558493	0.535989	0.519707	0.56457	0.653996	0.840493	1.11827	1.45786	1.89334	2.2675	2.44713	2.52756	2.28125	1.90517	1.45927	1.00974	0.529069	0.0249671	-0.46632	-0.723459	-0.925205	-0.668405	-0.760236	-0.797217	-0.875231	-0.832348	-0.768686	-0.690736	-0.612148	-0.537473	-0.491274	-0.411478	-0.322366	-0.126183	0.0686468	0.296344	0.416542	0.493145	0.54424	0.552925	0.539963	0.508289	0.448585	0.389482	0.324871	0.305251	0.294391	0.286565	0.410339	0.628668	1.18762	1.52164	1.83418	2.12052	2.40727	2.67052	2.88761	3.03089	3.15966	3.30355	3.70012	4.00885	4.18624	4.24984	4.2099	4.07569	3.88936	3.56509	3.68967	3.67819	3.78116	3.89905	3.97396	3.98844	3.985	3.93997	3.86981	3.77678	3.6915	3.58944	3.52215	3.45624	3.44383	3.49625	3.63509	3.88299	4.27468	4.65512	4.9058	5.07481	5.17356	5.17043	5.12922	5.00063	4.78065	4.27666	4.06203	3.88258	3.79433	3.72188	3.71466	3.73597	3.80405	3.88426	4.0315	4.30916	4.67607	5.02442	5.1949	5.3156	5.41908	5.57791	5.64101	5.67549	5.78645	5.96825	6.13129	6.37493	6.628	6.88308	7.14078	7.36363	7.62124	7.88602	8.20134	8.54488	8.90344	9.30641	9.72596	10.2789	10.9537	11.5905	12.1782	12.5827	13.016	13.4318	13.83	14.1878	14.5798	15.0018	15.4235	15.8259	16.2409	16.7494	17.3067	17.8943	18.5336	19.1891	19.8929	20.6553	21.4321	22.1272	22.7903	23.4175	24.0516	24.6902	25.323	25.9841	26.6493	27.2906	27.9389	28.5684	29.18	29.7991	30.3412	30.7039	30.9686	31.0619	31.0553	31.0431	30.9273	30.798	30.477	31.0709	31.4975	32.0138	32.6107	33.2647	33.9053	34.5199	35.0973	35.313	35.6033	35.5635	34.4881	33.5166	32.0557	30.417	28.5596	26.2201	24.0366	22.1901	20.7469	19.7591	19.4538	18.6744	18.1215	17.9369	17.9409	18.2216	18.4202	18.7545	19.2028	19.6662	20.1474	20.5385	20.7145	20.8118	20.7501	20.5116	20.0355	19.283	18.3391	17.1996	15.8839	14.4599	12.8814	11.2037	9.57263	7.96414	6.42031	5.04421	3.86571	2.90211	2.09558	1.41908	0.892889	0.499896	0.214233	0.0293787	-0.122665	-0.24272	-0.303338	-0.325559	-0.333088	-0.306487	-0.344087	-0.476367	-0.612613	-0.727285	-0.797692	-0.813311	-0.721578	-0.61166	-0.451447	-0.269873	-0.0783905	0.136362	0.290397	0.495924	0.691763	0.872778	1.03275	1.17228	1.25954	1.32604	1.31398	1.2313	1.11845	0.978172	0.830104	0.694126	0.629728	0.632538	0.701727	0.778194	0.867712	0.928543	1.07	1.25067	1.38108	1.49302	1.57652	1.60465	1.64053	1.61987	1.55836	1.52699	1.48556	1.42901	1.3785	1.32763	1.23909	1.06479	0.926761	0.781983	0.649899	0.564274	0.458518	0.32699	-0.0154747	-0.519485	-0.448332	-0.255696	0.15951	0.630281	1.13883	1.49767	1.38954	1.01865	0.899673	0.710405	0.512757	0.292532	0.0674263	-0.174484	-0.395774	-0.691096	-0.947334	-0.599277	-0.612306	-0.592027	-0.507016	-0.410828	-0.29775	-0.159734	0.0102197	0.198383	0.414493	0.636779	0.877654	1.12917	1.44472	1.8104	2.36138	3.00183	3.67301	4.46635	5.63779	6.96216
0	-20.0732	45.4166	44.0221	42.517	41.3188	40.1256	38.9439	37.771	36.6208	35.4863	34.3902	33.3072	32.2496	31.1848	30.1073	29.0244	27.7806	26.5149	25.4064	24.3463	23.2761	22.2107	21.1059	20.0226	18.9478	17.8992	16.87	15.8704	14.9441	14.0483	13.1793	12.2965	11.3805	10.5842	9.84343	9.19479	8.56729	8.04404	7.5645	7.10649	6.66509	6.28182	5.85229	5.47079	5.17841	5.01211	4.97222	5.01063	5.00597	4.86557	4.63687	4.39706	4.12297	3.79364	3.36118	2.7598	2.06748	1.16126	0.722586	0.459869	0.267162	0.150955	0.010602	-0.0783454	-0.152797	-0.20141	-0.174661	-0.0313261	0.076913	0.175282	0.26046	0.350748	0.377954	0.336771	0.172164	0.00190711	-0.167095	-0.284512	-0.358418	-0.402348	-0.472651	-0.478077	-0.45099	-0.400267	-0.29671	-0.174073	0.0191616	0.220062	0.412145	0.507188	0.546586	0.559993	0.527605	0.47436	0.383904	0.240359	0.058079	-0.0254472	-0.000570411	0.0479555	0.105072	0.173649	0.256221	0.34901	0.447921	0.569136	0.665857	0.808718	0.954499	1.09243	1.2195	1.34459	1.40814	1.38755	1.36136	1.37797	1.4974	1.68475	1.90795	2.10458	2.17911	2.22807	2.25319	2.3264	2.33591	2.33996	2.47012	2.61105	2.75899	2.86085	2.90517	2.96064	3.01776	3.10037	3.22547	3.44707	3.72389	4.04152	4.37909	4.81914	4.73091	4.58078	4.44261	4.31534	4.21678	4.1621	4.15523	4.19194	4.28496	4.43095	4.63279	4.8875	5.22702	5.65942	6.13217	6.61097	6.99612	7.39896	7.8188	8.19021	8.63287	9.05766	9.49585	9.95447	10.3881	10.8423	11.2946	11.7371	12.154	12.4731	12.795	13.1139	13.4083	13.7373	14.0563	14.3198	14.5648	14.72	14.7984	14.8112	14.7396	14.6318	14.528	14.4763	14.3679	14.1122	13.6841	13.309	13.1259	13.0125	12.9674	12.8552	12.7248	12.5961	12.4722	12.3557	12.2531	12.1877	12.1404	12.1025	12.0247	11.9023	11.6521	11.3995	11.1478	10.927	10.6974	10.4955	10.2996	10.1804	10.1092	10.1299	10.1788	10.236	10.2956	10.3519	10.4021	10.4489	10.3751	10.2616	10.1253	9.97597	9.83713	9.71471	9.58295	9.31468	9.02607	8.73864	8.53063	8.39859	8.28176	8.06024	7.75828	7.39784	6.98093	6.50401	6.02361	5.77221	5.62685	5.58093	5.54535	5.93756	6.26435	6.4744	6.60695	6.65673	6.64044	6.57181	6.42664	6.13985	5.69801	5.38229	5.11184	4.91681	4.71987	4.55643	4.39822	4.30703	4.15	3.91657	3.66894	3.43506	3.22827	3.05141	2.96246	2.9474	2.95205	2.98308	3.10113	3.22156	3.32044	3.39666	3.41051	3.34159	3.17086	2.93677	2.64583	2.30165	1.97827	1.65567	1.35221	1.1154	1.02153	0.963694	0.939802	0.870265	0.834518	0.819218	0.820282	0.811556	0.728522	0.565956	0.425841	0.287338	0.0753758	-0.0790155	-0.182825	-0.1388	-0.00115217	0.333869	0.238859	0.0886084	0.00471316	-0.0841905	-0.139726	-0.174494	-0.179595	-0.181078	-0.17567	-0.154087	-0.164758	-0.170801	-0.17961	-0.197106	-0.21658	-0.222243	-0.206967	-0.190687	-0.17403	-0.162965	-0.163268	-0.11855	-0.0616766	-0.0200164	0.0162119	0.0526411	0.0873094	0.11703	0.155175	0.197631	0.230505	0.27255	0.314525	0.368409	0.421255	0.528185	0.601379	0.701549	0.822929	0.971372	1.17564	1.47815	2.08851	2.66358	3.23766	3.76919	4.22669	4.61725	5.05289	5.45789	5.77887	6.08755	6.41827	6.74126	7.21408	7.54898	7.78115	8.04505	8.48284	9.0122	9.6558	10.3753	11.2706	12.2668	13.4953	14.6817	15.7943	16.871	17.9335	18.9662	19.9833	21.0138	22.0764	23.1747	24.3236	25.5285	26.7751	28.0817	29.385	30.6438	31.9791	33.5266	35.1611	36.8383	38.4374	40.0251	41.5866	43.2585	44.937	46.6586	48.3746	50.1598	51.8729	53.484	55.0418	56.5203	57.8974	59.1604	60.2904	61.302	62.1915	63.0068	63.6332	64.3018	65.0592	65.8859	66.5611	67.1335	67.5566	67.8656	68.0801	68.225	68.2686	68.2836	68.1808	67.9375	67.5007	66.8292	66.0007	65.2556	64.1088	63.2641	62.0292	60.9207	59.8963	59.0798	58.111	56.94	55.6305	54.3977	53.1475	51.9103	50.7005	49.4959	48.3896	47.211	46.3145	45.5253	44.5961	43.4827	42.3646	41.337	40.4342	39.6587	38.9102	38.1863	37.2201	35.8281	34.6509	33.681	32.8017	31.8925	30.998	30.0479	29.1863	28.3277	27.5043	26.6972	25.9143	25.1326	24.3397	23.5922	22.8372	22.0099	20.9713	19.9925	19.1114	18.4101	17.8417	17.3996	17.0763	16.8963	16.822	16.8335	16.9154	17.0952	17.4708	17.9873	18.7043	19.4899	20.316	21.0742	21.8067	22.4764	23.0763	23.7218	24.3602	24.8254	25.2167	25.6456	25.9011	26.3852	27.0557	28.2562	29.1301	29.9684	31.7162	34.4364	39.7468	46.5583	55.2125	66.6962	80.5887	101.42	124.543	152.23	182.044	204.268	216.351	206.249	177.174	148.563	121.831	99.5773	79.232	64.982	53.4562	44.6653	37.5356	31.6273	26.8965	23.4005	20.9017	18.5482	16.4795	14.5336	12.7358	11.1677	10.0273	9.3531	8.74349	7.81778	7.20551	6.52118	5.9584	5.56449	5.35451	5.19509	5.06857	4.96712	4.88746	4.79469	4.66538	4.54182	4.40041	4.23686	4.00783	3.85501	3.63902	3.75243	3.7348	3.63414	3.46936	3.27768	3.04362	2.77816	2.48949	2.21034	2.02458	1.83425	1.66006	1.54602	1.54332	1.6269	1.79579	2.11482	2.28443	2.38795	2.2969	2.14145	1.94414	1.71946	1.49603	1.22781	0.94126	0.649444	0.359913	0.118413	-0.0284721	-0.0608203	0.02842	0.171203	0.324372	0.472587	0.62744	0.773258	0.944559	1.12971	1.29384	1.4377	1.54811	1.56123	1.56426	1.51572	1.43821	1.31034	1.1333	0.885933	0.596685	0.292088	-0.013549	-0.311711	-0.567331	-0.522941	-0.419985	-0.305783	-0.187881	-0.0967409	-0.0190709	0.0192989	0.0503711	0.101197	0.140984	0.168594	0.127851	0.0469914	-0.143224	-0.345678	-0.547844	-0.726409	-0.885716	-0.817702	-0.624104	-0.423749	-0.254909	-0.187017	-0.167426	-0.113666	-0.0504016	0.0299666	0.150534	0.28364	0.367184	0.372244	0.374114	0.381213	0.406325	0.392995	0.384077	0.379292	0.38808	0.387533	0.382964	0.356893	0.337808	0.305056	0.24638	0.185955	0.133079	0.1072	0.180118	0.24936	0.223369	0.185244	0.0866681	-0.0517105	-0.0970663	-0.0992697	-0.00445435	0.0406952	0.0153358	0.0166407	0.0310135	0.0544841	0.0588203	0.0493845	0.070695	0.0471969	0.052662	0.060328	0.0721814	0.0764114	0.0677879	0.0522309	0.0105786	-0.0443297	-0.0905099	-0.128687	-0.156681	-0.165412	-0.153244	-0.0836384	-0.0185103	0.0708315	0.163695	0.29488	0.424617	0.570329	0.721875	0.601088	0.467488	0.270207	0.0989513	-0.0967022	-0.155242	-0.256605	-0.182993	-0.00915456	0.485149	0.708877	0.73684	0.661252	0.581648	0.385128	0.286772	0.22408	0.215023	0.246067	0.397814	0.387871	0.354509	0.294193	0.238194	0.15651	0.0740053	-0.0387622	-0.174263	-0.283467	-0.394538	-0.393287	-0.384523	-0.360425	-0.344679	-0.292778	-0.247792	-0.206016	-0.0385928	0.148628	0.28492	0.346045	0.3608	0.212583	0.0591348	-0.100012	-0.233818	-0.365084	-0.434173	-0.442212	-0.483451	-0.373147	-0.188942	-0.0199451	0.133658	0.290728	0.470297	0.676569	0.899544	1.06578	1.20856	1.3047	1.41451	1.51503	1.64345	1.78418	1.96898	2.22485	2.4253	2.56835	2.69333	2.84086	2.98932	3.14016	3.26794	3.36867	3.39689	3.36926	3.28165	3.18426	3.06693	2.90479	2.76187	2.62698	2.53501	2.44444	2.35887	2.23603	2.06968	1.95616	1.97182	2.08094	2.21679	2.44207	2.66137	2.88011	3.08259	3.25819	3.40256	3.50929	3.61729	3.71877	3.95614	4.19941	4.41924	4.57329	4.70482	4.81165	4.90647	4.90222	4.85759	4.79907	4.75147	4.78689	4.8085	4.82572	4.88179	4.959	5.09026	5.36121	5.75257	6.03994	6.37429	6.84304	7.35071	7.83386	8.32142	8.76576	9.17367	9.54494	9.86794	10.0876	10.0977	10.2461	10.4237	10.5761	10.7091	10.7968	10.8612	10.8875	10.9565	11.3408	11.9181	12.1943	12.4808	12.9391	13.2675	13.5657	13.8491	14.1667	14.515	14.9497	15.4156	15.8969	16.371	16.8857	17.4558	18.1705	19.0018	19.6475	20.3697	21.3088	22.2608	23.3099	24.3327	25.3274	26.2097	26.9669	27.5889	28.0766	28.4125	28.5834	28.5801	28.1922	27.9355	27.7995	27.6977	27.6736	27.768	27.9536	28.2363	28.5835	29.0027	29.5114	30.0951	30.774	31.5076	32.3631	32.894	33.6792	34.4468	34.7166	34.1781	32.6946	30.7351	26.6718	23.9408	21.6555	19.8531	18.4427	17.2468	16.1904	15.4198	15.0137	14.8414	14.5575	14.7326	15.1288	15.6703	16.3719	17.1215	17.7977	18.3376	18.7032	18.8816	18.8706	18.8107	18.4061	17.6918	16.7165	15.5593	14.1786	12.765	11.3831	10.0747	8.79759	7.5686	6.45199	5.449	4.59644	3.84756	3.18161	2.60606	1.84704	1.23092	0.713242	0.327273	-0.024542	-0.279272	-0.453587	-0.637441	-0.689721	-0.474952	-0.176228	0.11455	0.383175	0.628282	0.802023	-0.0203169	-0.0246914	0.0685456	0.151199	0.0286555	-0.139794	-0.280573	-0.359057	-0.337828	-0.15508	0.00242008	0.128504	0.258301	0.40602	0.531789	0.69053	0.904906	1.18374	1.58557	1.83677	1.93202	1.97028	1.96849	1.92066	1.84938	1.76789	1.65198	1.50036	1.30843	1.10552	0.903028	0.717546	0.68904	0.674619	0.605421	0.482763	0.415793	0.372098	0.353023	0.287164	0.240289	0.205971	0.179872	0.166522	0.129593	0.0861766	0.0741838	0.100202	0.0865919	0.0549273	0.0489715	0.0550668	0.0759474	0.00911995	-0.0498324	-0.0440162	-0.00460195	-0.00839823	-0.0137884	-0.0306359	-0.0526492	-0.164546	-0.232264	-0.284951	-0.344018	-0.381497	-0.386389	-0.352028	-0.276832	-0.14372	0.0224355	0.238325	0.434368	0.438484	0.597822	0.911687	1.38371	1.57357	1.80099	2.04711	2.32481	2.62577	2.92386	3.21486	3.5406	4.04948	4.71828	5.70563	8.96814
0	-0.0366178	47.1558	45.5256	43.9701	42.4866	41.1972	39.8213	38.4868	37.1455	35.8431	34.5817	33.2919	31.9632	30.6574	29.3671	28.1329	26.9133	25.7486	24.6162	23.5389	22.5154	21.5397	20.5254	19.4827	18.5714	17.7004	16.8369	16.0222	15.261	14.574	13.9888	13.4997	12.961	12.4339	12.0341	11.4949	10.7224	9.89733	9.07072	8.3167	7.55396	6.7758	6.01701	5.27412	4.66633	4.16008	3.70753	3.30172	2.99925	2.75701	2.55071	2.37654	2.34386	2.35655	2.3418	2.32251	2.27013	2.19301	2.07386	1.91739	1.69852	1.44882	1.1298	0.873629	0.53618	0.153924	0.206865	-0.0968889	0.170738	0.329779	0.233301	-0.00840401	-0.209963	-0.328736	-0.42962	-0.515694	-0.670495	-0.91652	-0.840879	-0.315227	0.0975373	0.392975	0.458558	0.668202	0.306752	0.341875	0.259541	0.183932	0.13895	0.0342768	-0.0757183	-0.115143	-0.119234	-0.0865539	-0.0559338	0.130943	0.340436	0.568535	0.738521	0.856903	0.995778	1.09816	1.3	1.52012	1.89068	2.26014	2.63251	2.89485	3.12622	3.35213	3.57513	3.78323	3.94984	4.0855	4.11471	4.04765	3.95065	3.80316	3.66287	3.58438	3.59156	3.72335	3.95629	4.21846	4.72959	5.015	5.1774	5.15374	5.10259	5.1213	5.13534	5.14991	5.15669	5.15486	4.95362	4.82516	4.77756	4.98436	5.33216	5.81798	6.34234	6.85306	7.31265	7.74384	8.08193	8.35316	8.59931	8.8004	8.98499	9.15924	9.29834	9.38987	9.32178	9.27055	9.26059	9.28978	9.3971	9.62301	9.87247	10.1282	10.3468	10.6099	10.9206	11.3202	11.8344	12.3927	12.9772	13.5649	14.0478	14.5648	15.0992	15.6766	16.225	16.7867	17.2362	17.5827	17.7423	17.7422	17.5342	17.3471	17.1401	16.9168	16.6577	16.3991	16.085	15.6834	15.3575	15.0758	14.8407	14.6767	14.6326	14.6616	14.6309	14.6312	14.5687	14.4612	14.2889	13.9745	14.0274	14.1815	14.4186	14.7444	15.0081	15.1331	15.1621	15.1132	14.1994	13.9321	13.6523	13.8306	13.9703	14.026	13.8555	13.5941	13.2693	12.8872	12.494	11.9909	11.7489	11.5478	11.4103	11.3054	11.2427	11.2079	11.1847	11.1893	11.1638	11.1872	11.3744	11.6054	11.7465	11.7357	11.6003	11.3624	10.9837	10.516	9.982	9.4742	8.9507	8.45894	8.0326	7.71578	7.42415	7.17402	6.93106	6.73848	6.70435	6.85237	7.06281	7.20948	7.22488	7.06478	6.74794	6.41881	6.21663	6.10902	6.1117	6.21934	6.43585	6.46284	6.24025	6.08843	5.47594	4.69323	4.18156	3.869	3.66122	3.50813	3.41225	3.39739	3.44329	3.59244	3.60773	3.62667	3.61729	3.56956	3.57034	3.551	3.51213	3.34796	3.42388	3.48144	3.46164	3.38919	3.2966	3.20541	3.08293	2.84269	2.53975	2.22892	1.94299	1.6736	1.41906	1.19722	1.01313	0.898743	0.879221	0.789788	0.80744	0.696074	0.57468	0.453347	0.3258	0.219801	0.134681	0.07701	0.0342442	0.0671555	0.122183	0.183253	0.165552	0.108812	0.0198499	-0.155371	-0.334318	-0.447864	-0.526222	-0.568581	-0.571757	-0.539593	-0.472117	-0.354669	-0.189982	0.00327649	0.210632	0.419695	0.613159	0.798122	0.990895	1.0778	1.12043	1.10787	1.04919	0.997584	0.959084	0.958171	0.96602	1.00079	1.0512	1.15192	1.20664	1.27327	1.43953	1.74503	2.11279	2.56866	3.05247	3.56335	4.03238	4.43715	4.82916	5.19634	5.55498	5.94092	6.4556	7.07833	7.71171	8.39506	9.09737	9.80628	10.545	11.306	12.0694	12.8159	13.513	14.2195	14.9228	15.6245	16.304	17.0151	17.7749	18.5811	19.5011	20.5868	21.9333	23.5893	25.2878	26.9328	28.5352	30.1142	31.6608	33.1875	34.6492	36.0841	37.4873	38.8728	40.2455	41.6242	43.0045	44.5181	45.9241	47.2972	48.8126	50.4138	52.0786	53.7029	55.1699	56.5635	57.8747	58.9561	59.9278	60.8168	61.7271	62.6229	63.476	64.2125	64.9206	65.5684	66.0705	66.3433	66.4794	66.5026	66.4216	66.2691	66.0496	65.7716	65.4417	64.4487	63.6011	62.5475	61.4471	60.3258	59.2345	58.144	57.1128	56.1003	55.025	53.6328	52.2252	50.7358	49.1027	47.6761	46.1209	45.0289	44.0267	43.0714	42.0768	41.1195	40.265	39.519	38.7931	38.1989	37.8562	36.9241	35.984	35.1784	34.1199	32.8132	31.3257	30.047	28.8527	27.5364	26.3659	25.1978	24.2659	23.048	22.2642	22.3163	21.8795	21.4514	21.0564	20.8799	20.4924	19.9755	19.2064	18.5959	18.0024	17.6632	17.6227	17.2347	16.8885	16.6334	16.5278	16.5508	16.7397	17.3595	17.8057	18.5751	19.1961	19.5266	19.9437	20.251	20.6869	20.8845	21.207	21.5178	21.7367	21.8612	22.0028	22.2516	22.6955	23.4042	24.1202	25.5225	27.3287	29.0785	31.8134	35.1568	39.6311	44.6782	52.961	66.6696	77.0987	94.9815	123.146	153.586	185.798	204.472	214.565	199.446	176.657	148.324	122.379	98.3564	75.4317	61.3887	51.7814	43.0209	36.3571	32.5181	27.5231	22.8581	19.5593	16.8506	14.5424	12.6884	11.3671	10.3207	9.20494	8.45815	7.59969	6.96344	6.22322	5.83333	5.32085	5.14781	4.41622	4.1198	3.72184	3.55946	3.63453	3.67447	3.75472	3.88057	3.94408	3.95896	3.69958	3.47388	3.29404	3.19363	3.11576	3.05201	2.98776	2.99405	2.89499	2.75362	2.59135	2.36537	2.12614	1.84139	1.62384	1.44595	1.28134	1.03164	0.736274	0.431522	0.196551	0.0128274	-0.137913	-0.24354	-0.325252	-0.38212	-0.435275	-0.455673	-0.443759	-0.38568	-0.293179	-0.169378	-0.091431	-0.0202275	-0.0560695	-0.0937183	-0.213795	-0.317598	-0.35435	-0.379002	-0.362667	-0.362292	-0.257581	-0.107892	0.0841118	0.184635	0.291924	0.398389	0.473272	0.486906	0.497043	0.443042	0.284561	0.163871	0.0487529	0.000881732	-0.0770226	-0.101272	-0.0942226	-0.0473855	0.00906675	0.0702259	0.150985	0.23282	0.325792	0.427957	0.531567	0.64066	0.745833	0.810184	0.726013	0.6119	0.491353	0.368527	0.259702	0.130324	-0.0109178	-0.0252113	0.0133471	0.0178284	0.0138806	0.0125323	0.0134129	0.0274366	0.0421023	0.0567575	0.0714513	0.0647831	0.0524355	0.0456972	0.0462175	0.0449177	0.0463584	0.0457871	0.0403943	0.02668	-0.0758731	-0.00669933	0.205239	0.414373	0.544127	0.811574	1.06504	1.2759	1.39816	1.44979	1.29914	1.08057	0.885237	0.681934	0.563454	0.429821	0.451364	0.491269	0.479846	0.403601	0.280845	0.151881	0.00742486	-0.115405	-0.224737	-0.303736	-0.350574	-0.374113	-0.368641	-0.343808	-0.282026	-0.184516	-0.0692415	0.107734	0.319437	0.650063	0.833883	0.941406	0.924598	0.836229	0.641908	0.407816	0.127531	-0.079222	-0.205162	-0.18024	-0.00822831	0.3942	0.698313	0.999121	1.157	1.26321	1.30921	1.34453	1.2085	1.11372	1.00005	0.872856	0.697415	0.548846	0.394736	0.300709	0.245498	0.333585	0.471189	0.725882	0.961569	1.13526	1.21944	1.24998	1.27518	1.40463	1.27494	0.507574	-0.129105	-0.758538	-1.17392	-1.46898	-1.12598	-1.05417	-1.26095	-1.22901	-1.11484	-0.924194	-0.702445	-0.437917	-0.150098	0.219246	0.573249	0.710123	0.86746	0.82962	0.698335	0.553474	0.431061	0.346016	0.203774	0.10902	0.0411177	0.0161936	0.0267097	0.0738956	0.232045	0.433883	0.633755	0.845391	1.06282	1.29426	1.45382	1.59579	1.70662	1.84456	1.93412	1.92509	1.96451	2.03769	2.11246	2.20097	2.27549	2.3475	2.49055	2.62846	2.67072	2.6657	2.62234	2.61513	2.6028	2.56828	2.43576	2.21184	1.88498	1.69314	1.54149	1.43386	1.37635	1.67253	1.69368	1.69339	1.65828	1.69404	1.81627	1.9751	2.27686	2.3984	2.48665	2.38589	1.60815	1.80979	1.98991	2.1769	2.47012	2.76249	3.08246	3.38972	3.66912	3.89844	4.09173	4.31218	4.48673	4.61413	4.72127	4.80105	4.83196	4.80404	4.7945	4.81149	4.85262	4.88212	5.00682	5.15858	5.34738	5.55809	5.79958	6.05551	6.32617	6.62271	6.92626	7.25359	7.57198	7.93183	8.32209	8.72742	9.13191	9.53121	9.85356	10.2168	10.5896	10.9768	11.173	11.4356	11.8068	12.2444	12.7108	13.2092	13.7725	14.4026	15.1834	15.5999	15.9554	16.3819	16.8173	17.1278	17.4392	17.7633	18.1312	18.641	19.2469	19.8948	20.6103	21.3672	22.1181	22.9209	23.7244	24.522	25.2726	26.0089	26.6919	27.3044	27.7694	28.115	28.3176	28.4237	28.4049	28.3178	28.1413	28.0708	27.9447	27.9065	28.1163	28.4738	28.8802	29.862	30.3112	30.735	31.2521	31.7649	31.6988	31.2237	30.0931	28.7128	27.3381	25.2336	23.6652	21.976	20.2773	18.6945	17.2294	16.1767	15.524	15.1616	15.501	15.656	15.9034	16.1907	16.4552	17.0933	17.5498	17.9344	18.2179	18.4083	18.5112	18.4605	18.2998	17.9533	17.3427	16.2437	15.4493	14.2397	13.0007	11.6953	10.3387	8.84569	7.37543	6.06173	5.02172	4.29575	3.80142	3.21036	2.66434	2.2424	1.8143	1.46126	1.12295	0.81438	0.464241	0.165399	-0.0966956	-0.288428	-0.437224	-0.479687	-0.454758	-0.380915	-0.29512	-0.24433	-0.126682	-5.95994e-005	0.122727	0.264952	0.373477	0.431419	0.466132	0.459384	0.462133	0.443936	0.391535	0.316491	0.175586	0.0253582	-0.107437	-0.152319	-0.160153	-0.177342	-0.205318	-0.218039	-0.184327	-0.126844	-0.0218222	0.0268466	0.0773805	0.110943	0.141472	0.162728	0.173974	0.182121	0.193626	0.201595	0.229219	0.25252	0.331119	0.398075	0.465468	0.531969	0.62337	0.711521	0.835829	0.937344	1.40195	1.50607	1.46212	1.25815	0.831004	0.317507	0.0964856	-0.144896	-0.247552	-0.252097	0.294072	0.458943	0.327527	0.222879	0.082358	-0.208644	-0.920797	-1.86146	-2.00622	-2.0414	-1.53154	-0.582598	0.0297561	0.0471754	0.115427	0.492615	0.719535	0.7587	0.727398	0.655774	0.595281	0.546343	0.50139	0.450836	0.43155	0.428758	0.495887	0.717746	1.03182	1.524	2.09688	2.72568	3.35819	4.04913	4.87471	5.61833	6.24295
0	20	45.6613	44.5891	43.5218	42.1506	40.7759	39.4388	38.1564	36.9149	35.6941	34.3502	33.0186	31.6946	30.6491	29.7134	28.7665	27.8701	27.07	26.0972	25.1472	24.1567	23.2344	22.3214	21.4785	20.6617	19.8982	19.0617	18.2078	17.2793	16.3302	15.3792	14.4854	13.5953	12.7772	12.0011	11.2209	10.455	9.77117	9.06103	8.48907	7.96572	7.52406	7.05463	6.63681	6.2209	5.75096	5.22166	4.69417	4.17743	3.62131	3.10938	2.62426	2.20643	1.94203	1.74112	1.53628	1.38369	1.26905	1.04054	0.803837	0.627283	0.471049	0.293833	0.170963	0.0264364	-0.113363	-0.248618	-0.347392	-0.426716	-0.500342	-0.428699	-0.369092	-0.258465	-0.120407	-0.00265906	0.11848	0.252891	0.274884	0.361104	0.474474	0.547307	0.564436	0.599571	0.554612	0.417396	0.206368	-0.0516574	-0.208677	-0.366475	-0.487964	-0.588067	-0.673962	-0.573511	-0.493681	-0.353	-0.117559	0.0825251	0.265467	0.419604	0.58861	0.713038	0.850422	0.890687	0.886823	0.916799	0.970768	1.00508	1.07205	1.12401	1.14966	1.26232	1.34468	1.43075	1.23026	0.95168	0.843335	0.768045	0.687048	0.696368	0.709651	0.722057	0.797179	0.90676	1.03556	1.23505	1.34002	1.34649	0.979545	0.900984	1.01231	1.18421	1.34631	1.56934	1.78576	2.01733	2.10944	2.04343	1.92703	1.90852	2.00745	2.36255	2.4625	2.56944	2.71408	2.92328	3.11698	3.40187	3.71898	4.02316	4.33767	4.59748	4.79322	5.00231	5.21077	5.37049	5.45476	5.56169	5.64492	5.76204	5.92249	6.17872	6.51288	6.94712	7.36392	7.84491	8.3965	8.9413	9.46083	10.0104	10.5888	11.1544	11.6185	12.0247	12.269	12.3549	12.3578	12.3252	12.2428	12.2261	12.1641	12.1122	12.0877	12.0704	11.9079	11.6827	11.3895	11.1607	10.9452	10.8735	10.7603	10.6555	10.5427	10.5452	10.5738	10.5488	10.5221	10.4614	10.4239	10.343	10.2602	10.27	10.2832	10.3336	10.3352	10.4162	10.4948	10.5552	10.6063	10.6414	10.5903	10.5524	10.5003	10.3162	10.0437	9.73914	9.44791	9.19234	8.9449	8.62706	8.40737	8.22279	8.10755	8.12274	8.20246	8.33814	8.41908	8.43367	8.49931	8.42003	8.33666	8.16912	8.04117	8.04179	7.95443	7.71539	7.33493	6.88831	6.47011	5.96739	5.54517	5.15862	4.89028	4.69689	4.51663	4.2981	4.18464	4.0545	3.98546	3.88507	3.82023	3.76013	3.66176	3.63083	3.57552	3.49086	3.38887	3.25318	3.10804	2.98098	3.09987	2.96432	2.59389	2.3485	2.10218	1.90114	1.78164	1.72112	1.72336	1.66574	1.40441	1.15128	1.03756	1.01746	1.0007	1.06983	1.18218	1.22498	1.28094	1.26171	1.22634	1.04662	0.959417	0.795383	0.684519	0.503327	0.36918	0.28527	0.20919	0.172661	0.156596	0.115797	0.11655	0.0340604	0.0904926	0.200714	0.331972	0.352207	0.31652	0.26563	0.222555	0.176405	0.183045	0.166012	0.185913	0.164137	0.0620838	0.0563569	-0.0135309	-0.257813	-0.782394	-1.14421	-1.31818	-1.40303	-1.2852	-1.03885	-0.675254	-0.254789	-0.0947946	0.0635047	0.11309	0.169371	0.0475589	0.0929609	0.138529	0.2024	0.234214	0.178031	0.250877	0.32207	0.411624	0.498945	0.647403	0.826361	1.0138	1.23645	1.37332	1.51944	1.6084	1.73548	1.87384	2.12721	2.32142	2.60596	2.99701	3.42727	3.82702	4.30736	4.75542	5.21314	5.68165	6.07031	6.45488	6.91383	7.28687	7.74509	8.14401	8.57391	8.95217	9.46353	10.0083	10.5559	11.1551	11.7551	12.4936	13.2093	13.9833	14.8786	15.7583	16.7036	17.7706	18.8564	20.1025	21.3487	22.6142	24.0048	25.5051	26.9728	28.3046	29.6469	30.9765	32.3002	33.7081	35.1669	36.7806	38.2626	39.7943	41.34	42.8298	44.3889	45.8687	47.3944	48.994	50.5493	52.1138	53.5162	54.8399	56.0518	57.2148	58.2905	59.3258	60.5213	61.7752	62.9867	64.0512	64.974	65.7136	66.4668	67.0394	67.3202	67.5453	67.7316	67.6764	67.2298	66.821	66.4602	66.1898	65.8367	65.657	65.0825	64.613	64.0861	63.5712	62.9583	62.1034	61.139	60.0076	58.7889	57.3612	55.9668	54.4788	53.178	51.8923	50.6648	49.4457	48.2558	47.0779	45.8984	44.9421	43.9675	43.0146	42.0858	41.1602	40.2814	39.2731	38.1823	36.9144	35.5367	34.1524	32.9206	31.6687	30.4849	29.1548	28.1292	27.145	26.2772	25.8313	25.4603	25.2845	25.0149	24.7209	24.0506	23.205	22.251	21.165	19.5786	18.508	17.597	16.88	16.0459	15.8426	15.8366	16.102	16.4937	16.9821	17.411	18.0277	18.878	19.8734	20.7192	21.2036	21.832	22.2207	23.1305	23.3104	23.6173	23.5529	23.7321	23.8999	24.574	24.6577	24.5069	24.7094	24.9817	25.9449	27.3031	29.4641	32.3161	36.029	40.6838	47.9692	57.0764	68.6348	81.9388	102.29	128.169	153.453	173.499	200.709	220.559	208.766	176.603	147.564	122.092	99.3384	79.9406	64.0623	51.4674	42.7881	36.4745	31.5531	29.7932	22.3287	19.6572	17.5951	15.5886	13.8681	12.0119	10.7608	9.69212	8.97038	8.22082	7.56887	7.21981	6.96283	6.77761	6.5925	6.3203	5.87868	5.75898	5.58901	5.33283	5.12691	4.92245	4.67923	4.37177	4.1115	3.78103	3.57207	3.36209	3.30044	3.29657	3.33997	3.39575	3.42359	3.4237	3.28602	3.05991	2.91056	2.73601	2.50736	2.35172	2.1485	1.94057	1.66979	1.49183	1.46725	1.45192	1.49797	1.49701	1.47891	1.46427	1.35463	1.25624	1.13173	0.98408	0.784095	0.582448	0.363784	0.0795686	-0.236968	-0.479968	-0.62781	-0.686693	-0.540053	-0.321613	-0.124745	0.120136	0.398927	0.573003	0.732103	0.861478	0.896233	0.873084	0.828424	0.747222	0.625974	0.476457	0.276322	0.0505788	-0.146034	-0.318105	-0.471906	-0.559771	-0.5639	-0.548602	-0.488781	-0.338804	-0.172173	-0.040191	0.0135427	0.00236651	0.0231654	0.0495154	0.109975	0.167932	0.177228	0.235967	0.169634	0.0825898	-0.102838	-0.304677	-0.437654	-0.369239	-0.233756	-0.0545067	0.0362214	0.153052	0.176152	0.18979	0.154292	-0.0291415	-0.175371	-0.343349	-0.448497	-0.504902	-0.484333	-0.379017	-0.270438	-0.147253	-0.0270485	0.153906	0.341259	0.492464	0.659148	0.811375	0.830224	0.885644	0.962376	1.02536	1.1232	1.09702	1.06923	1.06196	1.05507	1.05114	0.936066	0.86696	0.786391	0.676759	0.61318	0.608153	0.660802	0.647399	0.685169	0.630352	0.53959	0.482328	0.424563	0.380672	0.28991	0.220526	0.118059	0.0277217	-0.0848423	-0.180196	-0.302954	-0.39309	-0.425689	-0.474147	-0.510502	-0.473916	-0.436307	-0.353913	-0.25314	-0.111773	0.0942686	0.239342	0.359728	0.497411	0.548964	0.587748	0.648981	0.733035	0.888183	0.94059	0.977638	1.07723	1.1433	1.17795	1.21136	1.25093	1.26009	1.25764	1.23357	1.18066	1.09903	0.941804	0.822502	0.657433	0.472753	0.332142	0.166614	-0.0535386	-0.341981	-0.569556	-0.725201	-0.850308	-0.954021	-0.925977	-0.899986	-0.841703	-0.787532	-0.710618	-0.609892	-0.474312	-0.290268	-0.209899	-0.142706	-0.102837	-0.126794	-0.108287	-0.0874185	-0.0570373	-0.0484113	0.0439803	0.224603	0.359167	0.548235	0.77292	0.948866	1.10604	1.25296	1.38044	1.48802	1.57685	1.56116	1.49983	1.46419	1.42318	1.36961	1.31575	1.24332	1.24317	1.29608	1.47725	1.63999	1.78602	1.94472	2.10781	2.25374	2.45441	2.66632	2.84876	3.00069	3.1187	3.26511	3.3917	3.46718	3.5578	3.64226	3.7156	3.7911	3.82672	3.82275	3.83319	3.7459	3.63714	3.51024	3.34754	3.16355	3.09574	3.05376	3.22631	3.3957	3.49542	3.66137	3.83909	3.96363	4.19536	4.4323	4.67582	4.94277	5.20729	5.48947	5.73905	5.93946	6.09255	6.15464	6.27271	6.40018	6.50977	6.60012	6.62255	6.58375	6.63305	6.6081	6.68558	6.8076	6.95215	7.0801	7.27883	7.44711	7.64474	7.88156	8.08971	8.36691	8.61401	8.91331	9.18543	9.45922	9.69774	9.89935	10.1236	10.4296	10.8135	11.2919	11.8089	12.2794	12.6939	12.9905	13.3102	13.5699	13.8853	14.0754	14.2825	14.6523	14.9991	15.4621	16.0032	16.4901	16.9659	17.4368	17.8832	18.3381	18.8612	19.4973	20.1812	20.6464	20.9694	21.4184	22.0601	22.8376	23.4966	24.0925	24.7876	25.7168	26.2512	26.7907	27.3828	27.9107	28.4418	28.8428	29.1422	29.3656	29.5639	29.8702	30.1552	30.3843	30.6382	30.9043	30.5188	30.8763	31.3689	31.9348	32.4409	33.1144	33.605	34.4269	34.9434	35.1525	34.8316	32.9938	30.9484	28.592	25.299	22.3152	20.3333	18.9832	17.8595	17.4232	16.9481	16.7583	17.3226	17.3911	17.2939	17.4485	17.6029	17.8613	18.1609	18.5168	18.8619	19.1828	19.5522	19.6121	19.4084	18.9721	18.2588	17.2965	16.162	14.8527	13.3981	11.9698	10.582	9.246	7.95242	6.90483	5.81489	4.85659	3.9712	3.14102	2.38206	1.71862	1.13422	0.640337	0.271878	0.225041	-0.0289495	-0.195003	-0.272847	-0.299833	-0.132451	-0.00397684	0.0838619	0.0988436	0.204782	0.260186	0.30444	0.333584	0.240918	0.090963	-0.0818705	-0.291317	-0.397909	-0.497584	-0.56085	-0.738861	-0.800282	-0.658879	-0.414718	-0.160822	0.0907909	0.413902	0.836748	1.40385	1.57282	1.63359	1.71895	1.71596	1.5629	1.31671	1.01135	0.726842	0.542975	0.416732	0.382843	0.355317	0.400109	0.497122	0.568183	0.649149	0.73077	0.916065	1.17865	1.39813	1.54318	1.7019	1.63046	1.56267	1.44315	1.36681	1.30027	1.25903	1.32369	1.36224	1.42853	1.4687	1.47487	1.47727	1.51921	1.52202	1.55926	1.54974	1.50775	1.39883	1.19124	0.982708	0.679034	0.492245	0.264579	0.101914	-0.056478	-0.202815	-0.398765	-0.551126	-0.627733	-0.605401	-0.537781	-0.31305	-0.0938208	0.185027	0.492114	0.831739	1.21741	1.60959	2.08263	2.62798	3.18264	3.84104	4.33356	4.81615	5.28353	5.69996	6.2464	6.99781	7.95158
20	-20.0732	31.4621	31.1995	30.9156	30.626	30.0601	29.4514	28.7717	27.8728	26.9134	25.8232	24.7888	23.7529	22.6878	21.6898	20.7059	19.6715	18.6759	17.6112	16.6299	15.7251	14.9248	14.4041	13.9423	13.4942	13.0615	12.6355	12.0819	11.4579	10.9561	10.4017	9.84792	9.29371	8.6182	7.95365	7.17234	6.39368	5.72687	4.99014	4.30741	3.60265	3.07648	2.60109	2.01267	1.57002	1.29408	1.0367	0.85773	0.867057	0.922467	0.961242	1.05553	1.02738	1.01293	0.88505	0.614803	0.284943	0.150417	-0.121728	-0.329558	-0.322691	-0.302958	-0.308107	-0.407293	-0.540007	-0.496161	-0.4239	-0.116748	0.156838	0.396162	0.522231	0.588354	0.414011	0.574085	0.660915	0.831248	0.848468	0.851755	0.831194	0.790447	0.683265	0.534164	0.332949	0.0543389	-0.106812	-0.22059	-0.230409	-0.276181	-0.408774	-0.568515	-0.605027	-0.613622	-0.404605	-0.274973	-0.0717249	0.329742	0.676858	1.22964	1.77519	2.27714	2.73683	3.20109	3.58625	3.97731	4.3777	4.65285	4.7502	4.73035	4.60466	4.59576	4.51263	4.26487	4.03284	3.76829	3.60224	3.42631	3.27738	3.1996	3.19898	3.22888	3.344	3.46644	3.55433	3.69412	3.86577	3.97675	4.01616	4.09684	4.27344	4.41806	4.40266	4.35815	4.08783	4.90106	5.40285	5.1664	4.17296	3.88717	4.65854	5.28358	7.79716	4.13534	3.91873	4.07465	5.055	5.10078	5.43884	5.72983	6.38111	6.814	6.92756	7.10976	7.38426	7.57034	7.82289	8.04334	8.19714	8.42295	8.64714	8.79821	9.13643	9.46426	9.88851	10.3758	10.9987	11.5404	12.144	12.7684	13.2727	13.7361	14.1407	14.4231	14.677	15.0028	15.2872	15.4029	15.5183	15.4644	15.4033	15.2836	15.3081	15.2786	15.1738	15.0021	14.7695	14.4721	14.1241	13.8626	13.547	13.2676	13.0005	12.714	12.6005	12.5689	12.4685	12.3731	12.4347	12.4845	12.6321	12.938	13.3182	13.6057	13.8046	13.7965	13.6734	13.5119	13.2759	13.0755	12.7559	12.3908	12.1285	11.9322	11.7395	11.4362	11.1297	10.9301	10.7887	10.7312	10.6337	10.5948	10.59	10.4869	10.3283	10.1367	10.0735	10.0871	10.1466	10.1427	9.97061	9.73442	9.50937	9.04671	8.67947	8.24749	7.86996	7.51034	7.19446	6.84644	6.59075	6.51737	6.36057	6.35633	6.29533	6.32157	6.18544	5.929	5.74458	5.58791	5.45923	5.27377	5.09503	4.90547	4.79671	4.63686	4.47696	4.33109	4.19049	4.04652	3.99879	3.95239	3.93066	3.71526	3.56314	3.47156	3.38437	3.2839	3.27101	3.41975	3.48853	3.53318	3.71255	3.75318	3.78601	3.82394	3.72289	3.70189	3.60872	3.59703	3.54287	3.54311	3.42956	3.19194	3.10808	2.93755	2.70958	2.39475	2.27346	2.14744	1.96447	1.74958	1.43196	1.15747	1.01708	0.865193	0.70611	0.601165	0.603048	0.713359	0.92178	1.14674	1.28019	1.34415	1.27687	1.09555	1.06551	1.06642	0.900561	0.667812	0.502685	0.167231	-0.0470313	-0.163681	-0.106997	-0.115999	0.109291	0.0929552	0.100255	0.00224819	-0.135633	-0.205888	-0.399751	-0.384968	-0.411778	-0.271548	-0.223071	-0.280244	-0.256795	-0.271836	-0.184075	-0.076807	0.0482064	0.0795723	0.111688	0.187997	0.358678	0.689978	1.20959	1.49734	1.86135	2.28016	2.51754	2.84167	3.11243	3.42055	3.58824	3.71391	3.7438	3.80078	3.90474	4.03381	4.25569	4.55412	4.88249	5.4001	6.07554	6.72642	7.5307	8.36125	9.23261	9.951	10.7483	11.6756	12.5608	13.3976	14.0426	14.5365	15.0909	15.6622	16.091	16.4963	17.1111	17.679	18.3691	19.3775	20.4813	22.1333	23.6463	25.2018	26.9726	28.8062	30.6793	32.4588	34.3465	36.1316	37.6587	39.1759	40.5825	42.0595	43.1602	44.1493	45.3303	46.4411	47.7804	49.3866	51.1814	53.0831	55.048	56.7381	58.1877	59.6714	61.0315	62.3809	63.6579	64.7282	65.2453	65.8391	66.4198	66.849	67.0746	67.1037	67.2305	67.3282	67.4592	67.3105	67.07	66.4158	65.6503	64.7977	63.916	62.863	61.8856	60.9701	60.0397	59.0274	58.1176	57.0809	56.039	54.9922	53.8164	52.6825	51.5818	50.694	49.7266	48.7391	47.5263	46.033	44.8018	43.6277	42.506	41.4572	40.579	39.6449	38.7346	37.9635	37.2121	36.2643	35.2987	34.3592	33.5499	32.6353	31.6103	30.4167	29.1521	27.8196	26.7571	25.6832	25.2275	24.8823	24.8501	24.8661	24.0607	22.429	21.8063	20.9985	20.0826	18.9956	18.1714	17.5399	16.9648	16.4803	16.0438	15.9079	15.9794	16.2927	16.5609	17.0251	17.6104	18.2743	18.9603	19.479	20.2466	20.8763	21.1639	21.3247	21.412	21.4369	21.5422	21.6764	22.3327	22.4177	22.9219	23.368	24.2598	25.5001	26.7494	28.8853	31.2295	34.5519	38.975	45.0138	52.2922	62.0667	76.0807	96.5525	116.508	142.093	167.494	188.52	200.648	191.356	170.72	142.55	116.768	94.481	76.8369	59.8632	48.3597	39.5795	32.7363	28.2633	23.4881	20.6645	18.398	16.8224	15.7425	14.372	13.1864	12.5316	11.6907	11.4076	10.866	10.4462	9.77793	9.21044	8.78738	8.29369	7.53921	6.81124	6.07099	5.32259	4.64223	4.0642	3.54351	2.97675	2.63091	2.59128	2.64516	2.79373	2.94052	3.09791	3.20568	3.26367	3.25541	3.46546	3.51758	3.56713	3.58202	3.52198	3.47702	3.28147	3.07521	2.9402	2.69814	2.46968	2.07864	1.86564	1.6504	1.48932	1.44807	1.43038	1.35961	1.19089	1.27601	1.47277	1.66072	1.78975	1.85158	1.75411	1.54737	1.23054	0.914781	0.641584	0.299309	0.185303	0.124875	-0.0450813	-0.188058	-0.215079	-0.210408	-0.22662	-0.255095	-0.287308	-0.314396	-0.331047	-0.350534	-0.318521	-0.316487	-0.167131	-0.165579	-0.100644	-0.288106	-0.264191	-0.239871	-0.181025	0.0320819	0.220783	0.459841	0.651172	0.876948	1.00821	1.13179	1.1487	1.15454	1.07207	0.964581	0.861553	0.699927	0.69241	0.698045	0.739609	0.656416	0.478194	0.239129	-0.0291349	0.000185119	-0.183443	-0.263018	-0.36623	-0.464096	-0.49164	-0.496648	-0.428644	-0.385047	-0.313706	-0.177817	-0.176755	-0.0857532	0.0482997	-0.0583942	-0.0873434	-0.126465	-0.176143	-0.204308	-0.15042	-0.00792921	0.00481155	0.0700956	0.173111	0.320649	0.551503	0.900282	1.09928	1.22895	1.33994	1.37823	1.20551	1.16811	0.995425	0.661519	0.606542	0.600055	0.555975	0.44517	0.329754	0.209379	0.291425	0.396601	0.414264	0.416712	0.396344	0.41236	0.3718	0.314724	0.299481	0.318065	0.29959	0.385945	0.373632	0.471231	0.625306	0.61995	0.58748	0.489945	0.326915	0.242836	0.251897	0.18714	0.0433942	-0.189003	-0.325529	-0.340293	-0.369611	-0.2595	-0.151568	0.151755	0.515048	1.04234	1.53149	1.97206	2.34113	2.54052	2.73818	2.73002	2.64378	2.5213	2.40244	2.22396	1.86518	1.43492	1.13273	0.720932	0.335051	0.0484201	-0.297134	-0.461536	-0.697037	-0.864643	-0.942637	-0.998533	-1.06235	-1.08671	-1.14768	-1.22374	-1.20357	-1.08954	-0.923047	-0.707545	-0.464	-0.396974	-0.236183	-0.0898796	0.0330221	0.132456	0.19211	0.280726	0.301801	0.352985	0.400804	0.460984	0.473193	0.53436	0.790548	1.00703	1.30325	1.55723	1.77045	1.87634	1.84313	1.77262	1.75175	1.69701	1.63156	1.6108	1.54776	1.51023	1.46611	1.56846	1.74913	1.94346	2.11037	2.2911	2.56013	2.68413	2.97685	2.97177	3.0299	2.51617	1.38849	1.76149	2.15892	2.53425	2.98882	3.17884	3.28701	3.5848	3.80253	4.04429	4.09793	4.13719	3.94508	3.83212	3.48134	3.11333	2.83425	2.75977	2.71389	2.66178	2.69528	3.00416	3.36009	3.63872	3.94051	4.2405	4.56505	4.9204	5.13945	5.19547	5.18653	5.18019	5.03403	5.00862	4.89155	4.90683	5.1727	5.43586	5.52604	5.68291	5.94176	6.2092	6.46406	6.62882	6.70091	6.82313	6.84638	6.71204	6.54134	6.46268	6.28629	6.24205	6.38637	6.71612	7.10095	7.72993	8.43721	9.09319	9.87458	10.6109	11.3275	12.1097	12.8081	13.2781	13.7499	14.2064	14.5912	14.787	15.0566	14.8971	14.7359	14.7158	14.8507	15.2341	15.6967	16.1869	16.7582	17.3151	17.8757	18.4046	19.1344	20.1121	21.118	22.2311	23.1074	23.9766	24.548	24.4362	24.8131	24.7793	25.1677	25.6029	26.0169	26.5086	26.9063	27.3212	28.0776	28.4702	28.6227	28.6774	28.2456	28.3481	28.673	29.0889	29.5976	29.9363	30.1198	29.8399	30.1601	31.0465	31.6978	33.1567	33.3708	32.5244	30.0459	27.4142	25.1939	23.1555	21.1598	19.4707	17.8287	17.0154	16.263	15.6952	15.5109	15.3868	15.7853	15.9718	16.1693	16.4989	17.0163	17.4828	17.7912	18.2004	18.3193	18.3886	18.1819	17.8249	17.2443	16.5859	15.8209	14.9714	13.9807	12.9889	11.968	10.7586	9.39369	8.14256	6.92119	5.72515	4.79099	3.95396	3.22717	2.59715	2.04075	1.59462	1.25599	1.15346	1.04243	0.989309	0.910302	0.819864	0.750362	0.569799	0.410745	0.0614963	-0.325051	-0.588464	-0.807903	-0.904734	-0.888964	-0.879826	-0.698847	-0.697024	-0.647084	-0.509175	-0.355726	-0.277721	-0.182477	0.126147	0.471399	0.640981	0.905436	0.944729	0.953078	0.888592	0.716572	0.538041	0.43463	0.337341	0.30822	0.186898	0.125364	0.0419266	-0.0367895	-0.0320428	-0.182562	-0.180988	-0.164184	-0.148061	-0.126237	-0.0859612	0.0596047	0.111769	0.126659	0.326796	0.432553	0.553885	0.721804	0.956662	1.13306	1.13979	1.10636	1.05467	0.979171	0.948928	0.643513	0.33547	0.0124928	-0.177856	-0.254423	-0.315427	-0.266025	-0.237564	-0.0695697	0.0539016	0.0266393	-0.045105	-0.0320298	0.0171565	-0.0351401	-0.135898	-0.289849	-0.340706	-0.26435	-0.249778	-0.238914	-0.169356	-0.217135	-0.246086	-0.177431	-0.184941	-0.117021	0.000263499	0.0653014	0.147249	0.128144	0.0236953	-0.0375623	-0.0439417	0.0282162	0.254999	0.657693	1.22541	2.01962	2.86923	3.82158	5.04955
20	-0.0366178	58.5057	57.749	56.8373	55.8025	54.5121	53.1467	51.7822	50.0772	48.3673	46.629	44.8475	42.8695	40.9242	39.0269	37.3581	35.7282	34.1613	32.6639	31.2546	30.0567	28.7908	27.6877	26.7244	25.7703	24.8388	23.9312	23.0691	22.1605	21.326	20.4945	19.7271	18.9052	18.0702	17.601	16.6467	15.4922	14.3003	13.1284	12.0258	10.9693	10.0633	9.27655	8.55542	8.05823	7.67853	7.29816	6.9383	6.6544	6.35675	6.12176	5.766	5.27119	4.7845	4.17737	3.58198	2.97412	2.53445	2.27675	2.00134	1.78966	1.75991	1.53226	1.28557	1.03526	0.506042	0.113863	-0.0733137	-0.189464	-0.334175	-0.399396	-0.233297	-0.255548	-0.223956	-0.12436	-0.178544	-0.225947	-0.0808673	0.0490334	0.14413	0.222041	0.173768	-0.0625292	-0.154684	-0.179527	-0.267028	-0.27609	-0.276748	-0.146525	-0.0875658	-0.0387496	-0.0112417	0.2334	0.459517	0.688278	0.906901	0.980935	1.06622	1.05548	1.02455	1.01613	0.939243	0.870067	0.825548	0.912188	1.01704	1.22709	1.44254	1.8023	2.15544	2.44615	2.73191	3.05467	3.36879	3.62215	3.77658	3.85552	3.91752	4.01475	4.01466	4.49485	4.62076	4.74224	4.82891	4.78037	4.92496	5.14377	5.30979	5.34661	5.40164	5.44577	5.46672	5.44205	5.39377	5.32537	5.29229	5.26783	5.319	5.36666	5.62045	5.90924	6.29085	6.61402	6.99512	7.42573	7.90903	8.32528	8.67535	8.85145	8.92124	8.69496	9.04269	9.30917	9.44393	9.6034	9.80856	10.0142	10.2394	10.5175	10.8346	11.1702	11.4559	11.721	11.9445	12.2258	12.7275	13.2615	13.824	14.5769	15.302	15.9851	16.5366	17.0854	17.4743	17.8786	18.184	18.3262	18.5121	18.6664	18.7351	18.7085	18.5508	18.3233	18.0543	17.8247	17.4453	17.0462	16.6583	16.2373	15.8237	15.4794	15.2524	15.0641	14.9374	14.9162	14.949	14.9914	15.161	15.3046	15.4297	15.5683	15.6888	15.7759	15.8955	15.9183	15.9383	15.8431	15.5574	15.2154	14.925	14.6598	14.4216	14.2193	14.0281	13.8085	13.559	13.4131	13.3503	13.2582	13.1105	12.8973	12.8168	12.7908	12.6561	12.4644	12.3449	12.1763	12.0119	11.9363	11.9043	11.8021	11.6547	11.4808	11.3197	11.0948	10.8788	10.7334	10.5478	10.5061	10.5944	10.2532	10.3859	10.3387	10.0745	9.75697	9.48774	9.26567	9.27839	9.38457	9.41181	9.32253	9.12092	8.81161	8.46007	8.01043	7.70258	7.46965	7.20485	7.08347	6.94171	6.80965	6.67567	6.51067	6.31629	6.35822	6.20508	5.97361	5.65431	5.48965	5.31326	5.36161	5.29654	5.23231	5.11189	5.00098	4.90201	4.7674	4.64419	4.57523	4.52904	4.4034	4.04345	3.70473	3.42901	3.27902	2.97531	2.81979	2.79938	2.90733	3.07707	3.31193	3.46309	3.52191	3.47838	3.38516	3.21887	2.99418	2.53372	2.20735	1.87934	1.45667	1.00978	0.669397	0.384416	0.111901	-0.0682142	-0.112678	-0.13879	-0.071747	0.0128901	0.113186	0.243634	0.167811	0.104995	0.028529	-0.0653408	-0.17546	-0.254638	-0.365676	-0.419174	-0.551172	-0.56711	-0.427172	-0.198848	-0.128279	-0.0855232	0.016312	0.0743002	0.0479579	0.0144774	0.013339	0.11813	0.221726	0.304454	0.475499	0.641684	0.807071	1.06832	1.46517	1.86331	2.29605	2.70932	2.89748	3.01493	3.03666	3.14125	3.11957	2.99422	2.90888	3.1001	3.39233	3.75085	4.19938	4.65572	5.11033	5.63872	6.15777	6.6906	7.29491	7.84015	8.37875	8.90011	9.52038	10.2435	10.9919	11.8097	12.72	13.8271	15.0856	16.4464	17.7701	19.2335	20.6571	21.9295	23.1994	24.3686	25.599	26.8334	27.9722	29.1412	30.3227	31.5355	32.8366	34.2915	35.8047	37.4351	38.9547	40.4857	41.9998	43.6135	45.3966	47.0626	48.6292	50.0515	51.3604	52.7279	54.1172	55.1181	56.5191	57.8494	59.1448	60.4433	61.537	62.5896	63.5665	64.4435	64.9814	65.4508	65.7539	66.0164	66.0887	66.1761	65.9118	65.4009	64.7902	64.173	63.4417	62.6484	61.9477	61.1868	60.5366	59.672	58.7716	57.7517	56.6971	55.5189	54.3764	53.2509	52.307	51.0857	49.842	48.5693	47.2391	45.9555	44.6463	43.4212	42.3632	41.1839	40.0116	38.9517	37.7971	36.8311	35.8247	34.8194	33.8557	32.9379	32.01	31.1915	30.3432	29.4207	28.5621	27.5882	26.6254	25.6461	24.7867	24.0564	23.2665	22.4213	21.6032	20.909	20.2083	19.513	18.8234	18.207	17.5452	16.8982	16.2518	15.6017	14.982	14.5117	14.1502	13.7458	13.4928	13.6335	14.0611	14.5549	15.039	15.6873	16.3592	17.1052	17.8985	18.5739	19.2697	19.5311	19.8541	20.034	20.046	20.1809	20.1765	20.6641	20.8349	21.1377	21.689	22.9008	24.5387	26.6747	29.8013	34.1699	38.2795	43.9198	51.7046	62.5884	75.3229	94.0662	118.551	145.346	173.043	191.779	202.508	198.849	177.969	146.184	114.467	91.1681	73.1492	59.7935	47.8656	40.0802	33.7302	28.5707	25.1247	22.0384	18.7675	15.8341	13.705	11.5166	9.87395	8.86907	8.25274	8.07901	7.81194	7.65294	7.54397	6.84641	6.14025	5.13444	3.99965	3.20062	2.90469	3.20928	4.1291	5.6841	5.18198	3.81546	2.7699	2.04741	1.62013	1.47954	1.37291	1.4331	1.43234	1.55594	1.51645	1.51666	1.42001	1.32439	1.31402	1.33253	1.27746	1.13091	0.862403	0.540273	0.270861	0.236064	0.351739	0.487387	0.698763	0.923382	1.07883	1.19846	1.31976	1.37058	1.46379	1.47705	1.53288	1.54169	1.62067	1.69302	1.72825	1.60277	1.44281	1.29175	1.0529	0.801722	0.52893	0.27966	-0.00988222	-0.23893	-0.471406	-0.584024	-0.713197	-0.769184	-0.797702	-0.903118	-0.913209	-0.869398	-0.730921	-0.6526	-0.588457	-0.50572	-0.412452	-0.258014	-0.114355	0.134226	0.38927	0.543792	0.660061	0.808836	0.849418	0.781748	0.690263	0.597265	0.488804	0.375863	0.340198	0.309988	0.212173	0.0836145	0.055419	0.0512407	0.0839559	0.115962	0.0701323	0.0272927	-0.16851	-0.237267	-0.199626	-0.110035	0.0208615	0.196322	0.317379	0.319545	0.144374	0.00846741	0.0311364	0.00125754	-0.0193442	-0.0454175	-0.104439	0.0802374	0.161416	0.117579	0.0527221	0.00416818	0.0138155	0.0995319	0.204107	0.288894	0.428633	0.547322	0.677596	0.846638	0.994567	1.16046	1.27118	1.33406	1.36434	1.46476	1.51292	1.64936	1.66961	1.67981	1.72558	1.7288	1.60601	1.37878	1.23075	1.12533	1.02723	0.863091	0.754479	0.6653	0.516977	0.218273	0.100622	-0.0340352	0.0790469	0.263094	0.387196	0.560991	0.821424	0.848789	0.828613	0.690674	0.498085	0.311409	0.172554	-0.0824853	-0.274338	-0.453241	-0.55311	-0.528443	-0.330369	-0.169477	0.0301496	0.192541	0.381254	0.679892	0.84923	0.963569	1.04061	0.963599	0.96624	0.915108	0.82265	0.684894	0.485897	0.325035	0.257839	0.0920151	0.0107796	-0.147807	-0.307903	-0.530926	-0.644607	-0.722538	-0.874976	-1.09769	-1.222	-1.42491	-1.54467	-1.51583	-1.49897	-1.47577	-1.37209	-1.19023	-1.02588	-0.849249	-0.700733	-0.548932	-0.402695	-0.297421	-0.0802362	0.154973	0.441048	0.691545	0.887083	1.09062	1.15941	1.15071	1.16021	1.17663	1.07073	1.00478	0.985629	0.734412	0.468529	0.342931	0.269022	0.270342	0.252741	0.256586	0.180969	0.122451	0.101774	0.147899	0.243184	0.353186	0.394518	0.481871	0.540446	0.621409	0.732189	0.815889	0.899229	1.01177	1.18779	1.41348	1.62364	1.72217	1.86969	1.9892	2.06349	2.20683	2.25465	2.29611	2.27774	2.14041	1.9971	1.84766	1.67086	1.44718	1.12428	0.778178	0.522014	0.372132	0.298614	0.238988	0.23639	0.0776855	0.111963	0.396796	0.796411	1.17518	1.55059	1.98955	2.31851	2.66456	2.73822	2.88202	2.97603	3.01826	3.045	3.09012	3.30815	3.50881	3.71617	3.89125	4.0059	4.15407	4.19522	4.2578	4.34151	4.40289	4.50219	4.60959	4.69569	4.88056	5.09401	5.61756	5.95468	6.43461	6.6822	6.93515	7.00644	7.0615	7.21527	7.33816	7.50733	7.74081	8.04476	8.40319	8.89489	9.42493	9.97275	10.5563	11.1374	11.7208	12.3967	13.0357	13.6343	14.1804	14.5798	15.0983	15.652	16.3726	17.0255	17.6093	18.1349	18.7855	19.4848	20.4158	21.3204	22.112	22.7248	23.286	23.7013	24.0832	24.319	24.3703	24.2483	23.9557	23.7747	23.6182	23.4313	23.3387	23.3974	23.5253	23.815	24.5102	24.9318	25.645	26.4602	27.3487	28.464	29.232	30.0883	30.7242	31.0098	30.3886	29.514	28.1718	26.2172	24.0419	21.8247	19.257	16.595	16.1756	15.5663	15.4203	14.837	14.6157	14.3452	14.6448	14.9036	15.2477	15.4642	15.5882	15.865	16.0009	16.7559	16.9322	16.9544	16.8606	16.3954	15.8925	15.1068	14.1492	13.1165	12.0944	11.0793	10.0479	9.09319	8.20525	7.31935	6.43894	5.586	4.6995	3.69127	2.75015	1.91707	1.17413	0.586733	0.0861171	-0.236518	-0.531171	-0.728994	-0.759576	-0.577057	-0.247599	0.150036	0.763961	1.27692	1.61918	1.82929	1.89233	1.91046	1.75921	1.56107	1.1048	0.801964	0.459776	0.162358	-0.0779624	-0.309044	-0.519465	-0.546627	-0.509906	-0.505056	-0.457898	-0.363486	-0.328209	-0.369612	-0.326743	-0.135467	-0.0275158	0.400953	0.732789	1.03683	1.25442	1.39859	1.49655	1.52495	1.56818	1.57617	1.60496	1.64117	1.63939	1.61624	1.5653	1.44859	1.49678	1.49793	1.52775	1.58728	1.56935	1.64839	1.76556	1.89824	1.98281	2.06767	2.1486	2.22765	2.35996	2.44725	2.79292	2.86853	2.85804	2.72945	2.52466	2.29803	2.0316	1.72498	1.45027	1.13336	0.871679	0.63593	0.33324	0.0329006	-0.211822	-0.402794	-0.536126	-0.47598	-0.343343	-0.245102	-0.193286	-0.19963	-0.186269	-0.162736	-0.158571	-0.091943	-0.0283585	0.12459	0.247845	0.464979	0.725869	0.915541	1.10451	1.32258	1.72985	2.13546	2.70864	3.37213	4.27015	5.26874
20	20	39.67	38.164	36.8409	35.4632	33.9557	32.5787	31.1406	29.8892	28.7126	27.5398	26.3582	25.2825	24.2988	23.3102	22.3179	21.4027	20.5451	19.7267	18.9322	18.1434	17.3365	16.6096	15.7263	14.7789	13.7732	12.8277	11.9738	10.8161	9.97129	9.06453	8.25682	7.49561	6.77011	6.13671	5.53358	5.07791	4.78408	4.42032	4.06394	3.52007	3.11165	2.77175	2.31439	1.92546	1.55058	1.19366	0.896141	0.568702	0.425829	0.249091	0.190865	-0.264768	-0.321839	-0.194534	0.0702648	0.202806	0.355443	0.27716	0.213201	0.0946721	-0.0293807	-0.112081	-0.191164	-0.147806	-0.133384	-0.0428675	0.0859844	0.139253	0.161678	0.125158	0.110666	0.132014	0.160418	0.201223	0.130166	0.0571186	-0.13841	-0.287104	-0.401876	-0.488158	-0.520261	-0.462021	-0.334824	-0.100939	0.080146	0.302235	0.457531	0.596779	0.786307	0.925245	1.09295	1.27048	1.43398	1.67598	1.94684	2.20001	2.38841	2.60146	2.77659	2.95967	3.06393	3.22516	3.39847	3.64665	3.8479	4.02668	4.21948	4.4735	4.75383	4.97679	5.13179	5.18004	5.24503	5.40737	5.55855	5.68247	5.84609	5.86112	5.92285	5.92608	6.05694	6.15535	6.27038	6.37554	6.49192	6.67428	6.90569	7.09348	7.27581	7.40583	7.49486	7.56022	7.80916	8.0387	8.29112	8.55895	8.81783	9.0546	9.21481	9.24526	9.36652	9.43627	9.54468	9.66876	9.79492	9.9594	10.1103	10.1854	10.1983	10.254	10.3796	10.5389	10.9301	11.3399	11.8255	12.3044	12.9556	13.4092	13.8412	10.9008	14.4583	15.2875	15.8555	16.1917	16.3926	16.5218	16.7807	17.0219	17.2655	17.4615	17.6706	17.9159	18.2075	18.4527	18.7269	19.0408	19.228	19.5223	19.8461	20.1346	20.3771	20.4636	20.5038	20.504	20.3705	20.1277	19.8892	19.5607	19.3313	19.2606	19.2563	19.2673	19.3869	19.2675	18.9823	18.7098	18.4841	18.2794	18.0391	17.8271	17.6876	17.4879	17.316	17.2193	17.1694	17.1671	17.281	17.4829	17.692	17.7706	17.9196	17.8068	17.7253	17.4744	17.1977	16.8758	16.6131	16.2014	15.8455	15.4959	15.1681	14.7486	14.4237	14.2798	14.1823	14.0372	13.9025	13.7119	13.4786	13.0719	12.6645	12.1559	11.8779	11.6708	11.3838	11.1445	10.8897	10.7891	10.9361	11.2159	11.4528	11.567	11.7506	11.7055	11.6318	11.4324	11.2668	10.9244	10.5	9.8372	9.18464	8.8212	8.37261	8.29943	8.34033	8.08278	7.89711	7.65035	7.34958	6.45272	5.88508	6.40715	6.23951	6.0522	5.92769	5.76486	5.64541	5.51801	5.4275	5.34243	5.38119	5.42124	5.38788	5.25636	5.24204	4.99503	4.68291	4.33322	3.91314	3.54364	3.41002	3.19071	2.97559	2.69119	2.48169	2.30944	2.16018	2.08831	1.97588	1.94954	1.91207	1.79871	1.73925	1.49486	1.2572	1.11331	0.971569	0.827151	0.745773	0.665624	0.676183	0.643719	0.567849	0.489331	0.373686	0.261995	0.225133	0.185472	0.089681	0.103627	0.126951	0.110518	0.0482405	-0.0181302	-0.100899	-0.142752	-0.266653	-0.352972	-0.381822	-0.310767	0.140246	0.0601831	0.0479453	-0.111134	-0.794759	-0.78113	-0.695161	-0.504534	-0.278783	0.0424029	0.340741	0.951442	1.38352	1.74006	2.05174	1.90818	2.06627	2.18264	2.28844	2.29861	2.29324	2.28188	2.26198	2.27445	2.3259	2.52804	2.74882	3.00239	3.3969	3.86215	4.25898	4.75191	5.27641	5.73795	6.09172	6.4733	6.98401	7.56684	8.18539	8.76219	9.43313	10.0046	10.5743	11.3161	12.1147	12.9542	13.8681	14.8875	16.0445	17.2424	18.4983	19.7458	20.9092	21.9713	23.0442	24.2758	25.6111	26.9236	28.1463	29.3951	30.7186	31.982	33.395	35.0174	36.635	38.2944	39.8997	41.4228	42.9879	44.3942	45.7246	47.1128	48.6716	50.2576	51.9495	53.7201	55.226	56.4217	57.578	58.7535	59.9131	60.9938	62.0615	63.114	63.8719	64.2457	64.4214	64.4602	64.4358	64.2305	63.8616	63.5917	63.3379	62.8386	62.2529	61.6029	60.8651	59.8962	58.8087	57.9012	57.0264	56.1047	55.4047	54.4893	53.4369	52.3363	50.9644	49.7604	48.4827	47.3978	46.4201	45.7101	44.7662	43.6651	42.5121	41.2848	40.0062	38.83	37.8825	37.0353	35.992	34.8673	33.6896	32.5873	31.5604	30.7288	29.9962	29.4336	28.7127	27.8614	26.7686	25.7671	24.9115	23.8132	22.6856	21.4267	20.3374	19.392	18.4565	17.7383	17.0926	16.572	16.1488	15.8665	15.7082	15.6119	15.5242	15.4463	15.2367	15.0264	15.0153	15.1944	15.4094	15.5638	15.7762	15.9626	16.1773	16.5204	16.8733	17.2231	17.604	17.9045	18.2369	18.6317	18.7616	18.8939	19.1294	19.2862	19.7364	20.1694	21.2702	22.2295	23.5252	24.9287	26.8435	29.5847	33.1777	38.2457	44.2913	52.5823	62.8612	75.5343	92.9079	124.341	153.046	180.934	195.577	197.503	204.761	170.772	139.949	114.172	91.9869	74.7673	59.552	47.9138	40.416	34.5331	29.979	26.825	23.2563	18.7598	16.0744	14.0161	12.4254	11.0935	9.73696	8.77596	7.91907	7.16648	6.60846	6.12708	5.68264	4.9256	4.4619	3.97474	3.44877	2.81165	2.31109	1.73959	1.29615	0.87871	0.636139	0.402959	0.203708	0.109075	0.0814678	0.205613	0.367133	0.492442	0.593639	0.58335	0.632253	0.66218	0.603301	0.602482	0.567947	0.507945	0.382692	0.225109	0.0925195	-0.0671086	-0.43623	-0.559199	-0.630184	-0.625764	-0.590137	-0.622424	-0.677137	-0.655913	-0.569301	-0.436192	-0.342171	-0.164746	-0.0601169	0.0809821	0.060562	0.145008	0.300926	0.459982	0.541692	0.499232	0.501966	0.473156	0.377779	0.327878	0.237365	0.0525274	-0.113776	-0.296521	-0.381114	-0.36921	-0.335353	-0.263065	-0.154995	-0.0270909	0.0909908	0.244069	0.295229	0.354729	0.413057	0.429576	0.493963	0.47829	0.477515	0.532183	0.537524	0.562118	0.64119	0.613761	0.638924	0.551852	0.50761	0.426914	0.412655	0.117263	-0.159426	-0.384823	-0.55157	-0.64376	-0.595442	-0.504708	-0.351662	-0.212324	-0.0519351	0.0807085	0.194446	0.290292	0.367271	0.419549	0.564402	0.478478	0.330704	0.184063	-0.0560241	-0.264741	-0.450425	-0.600982	-0.624934	-0.537451	-0.475054	-0.456251	-0.535982	-0.658815	-0.61015	-0.337851	-0.164706	0.0454128	0.142486	0.230493	0.265904	0.276469	0.0881088	0.0850865	0.156547	0.331976	0.506558	0.708397	0.955193	1.10937	1.14313	1.21119	1.27042	1.34995	1.41619	1.45461	1.26668	1.08273	0.796437	0.401145	0.0188895	-0.175086	-0.31371	-0.362629	-0.308538	-0.0309054	0.2706	0.597635	0.892043	1.15733	1.32283	1.53015	1.9999	1.8751	1.56025	1.04886	0.565888	-0.217168	-0.780431	-0.967654	-0.897427	-0.544281	-0.0255554	0.633178	1.31828	1.91499	2.43354	2.82081	3.02151	2.97153	2.73696	2.59665	2.48451	2.27945	2.07104	1.80073	1.66612	1.53254	1.43158	1.2724	1.28033	1.13971	0.978695	0.727178	0.463517	0.123436	-0.162866	-0.368796	-0.554756	-0.723505	-0.845441	-0.851744	-0.785565	-0.616285	-0.451522	-0.461615	-0.437152	-0.425218	-0.338887	-0.293105	-0.209597	-0.0732593	-0.00134231	-0.0335738	-0.0475403	0.0311093	0.210867	0.470718	0.961265	1.22665	1.42327	1.5778	1.78661	1.99287	2.14534	2.26907	2.34359	2.3346	1.84295	1.60376	1.4563	1.3357	1.1888	1.04604	0.865642	0.843787	0.882524	1.00814	1.21765	1.43629	1.73723	1.96139	2.18873	2.43712	2.56576	2.60288	2.53944	2.47115	2.41037	2.30115	2.17392	1.98248	1.83078	1.61524	1.40385	1.31632	1.28975	1.27674	1.27464	1.34051	1.41799	1.46303	1.69435	2.12553	2.51635	2.85234	3.11832	3.18315	3.19104	3.16458	3.15467	3.06472	3.23987	3.336	3.39191	3.46011	3.4151	3.38354	3.30841	3.21975	3.24749	3.45926	3.64485	3.90877	4.02132	4.14239	4.20944	4.3322	4.50118	4.82713	5.32375	5.69091	6.02222	6.20633	6.29436	6.32675	6.36896	6.4507	6.47512	6.65451	6.91489	7.23322	7.58444	8.03334	8.54774	9.02307	9.48405	9.92249	10.3768	10.82	11.1261	11.3982	11.6904	11.9517	12.1885	12.4909	12.8526	13.2375	13.6541	14.1646	14.802	15.5073	16.2972	17.1329	17.909	18.7233	19.525	20.3878	21.175	21.9464	22.6158	23.2766	24.0229	24.6775	25.2427	25.4835	25.7983	26.1001	26.3608	26.4771	26.5558	26.6511	26.6888	26.7058	26.6945	26.9306	27.0834	27.3261	27.6033	27.9566	28.4593	28.9132	29.5198	30.0669	30.5025	30.8366	30.789	30.6979	30.0983	29.435	27.735	25.8606	23.8344	21.9432	20.1829	18.5028	17.0291	15.9611	15.1709	14.6397	14.9777	15.0741	15.189	15.5306	15.8645	16.2565	16.628	16.9633	17.2815	17.2804	17.3612	17.2273	16.8381	16.1847	15.5154	14.6895	13.7458	12.7483	11.6587	10.5997	9.46307	8.39138	7.27794	6.2374	5.21085	4.45554	3.84944	3.35828	2.92931	2.27222	1.66087	1.12522	0.723722	0.458037	0.204317	0.0723892	-0.00107168	-0.0623708	-0.11736	-0.19074	-0.313605	-0.39339	-0.53052	-0.603822	-0.628559	-0.716207	-0.83193	-0.87431	-0.872053	-0.79545	-0.668821	-0.42958	-0.216446	-0.0148966	0.222046	0.371885	0.527791	0.567983	0.564141	0.558635	0.505702	0.44627	0.316079	0.225648	0.2703	0.256887	0.381382	0.674066	0.898914	0.906981	0.900857	0.928238	0.893438	0.866932	0.884053	0.804577	0.74336	0.669887	0.559804	0.433747	0.349411	0.321407	0.264325	0.294156	0.393195	0.433776	0.549159	0.774479	0.840755	0.943402	1.09768	1.27212	1.46322	1.6129	1.75568	1.94516	1.88816	1.76485	1.41128	1.04969	0.592491	0.222963	-0.0955123	-0.304557	-0.379524	-0.394322	-0.400678	-0.202968	0.118597	0.190485	0.0977961	0.0950377	0.14137	0.0441554	0.000185942	-0.00687856	-0.229746	-0.265657	-0.283148	-0.305097	-0.331525	-0.312987	-0.245696	-0.119342	0.15109	0.515089	0.896303	1.33389	1.77224	2.08914	2.37357	2.60563	2.77018	2.90156
