Acq. time (s)=	4
Accumulations=	3
Range=	Off
Autofocus=	At all XY pixels
SWIFT=	Off
AutoExposure=	Off
Spike filter=	Multiple accum.
Delay time (s)=	0
Binning=	1
Readout mode=	Signal
DeNoise=	Standard
ICS correction=	On
Dark correction=	Off
Inst. Process=	Off
Instrument=	LabRAM S3000
Detector=	Synapse
Objective=	x100
Grating=	1800
ND Filter=	25%
Laser (nm)=	632.81 
Spectro (cm-¹)=	521.228
Slit=	100.021
Hole=	199.981
Microscope=	Principal
StageXY=	Märzhauser
StageZ=	Märzhauser
Z (µm)=	-520.9
Project=	
Sample=	
Site=	
Title=	SOP_200nm_furu_p0.25
Remark=	
Date=	14.06.2019 11:42
Operator=	
Acquired=	14.06.2019 11:42:39
		358.285	358.609	358.934	359.26	359.585	359.909	360.235	360.56	360.886	361.21	361.535	361.859	362.185	362.51	362.834	363.16	363.485	363.809	364.135	364.459	364.784	365.108	365.434	365.758	366.083	366.407	366.733	367.057	367.381	367.705	368.03	368.355	368.68	369.004	369.328	369.652	369.978	370.302	370.626	370.95	371.274	371.598	371.923	372.248	372.572	372.896	373.22	373.544	373.868	374.192	374.516	374.84	375.164	375.49	375.813	376.137	376.461	376.785	377.109	377.433	377.757	378.081	378.404	378.728	379.052	379.376	379.699	380.023	380.347	380.671	380.994	381.318	381.642	381.965	382.288	382.611	382.935	383.258	383.582	383.906	384.229	384.553	384.876	385.2	385.522	385.845	386.169	386.492	386.816	387.139	387.463	387.785	388.108	388.431	388.755	389.078	389.402	389.723	390.047	390.37	390.693	391.015	391.338	391.662	391.985	392.307	392.63	392.953	393.276	393.598	393.921	394.244	394.566	394.889	395.212	395.535	395.857	396.18	396.503	396.825	397.148	397.471	397.792	398.115	398.437	398.76	399.083	399.404	399.727	400.049	400.372	400.694	401.016	401.339	401.66	401.983	402.304	402.627	402.95	403.271	403.594	403.915	404.238	404.559	404.882	405.203	405.526	405.847	406.17	406.491	406.814	407.135	407.456	407.778	408.1	408.422	408.743	409.066	409.387	409.708	410.03	410.351	410.674	410.995	411.316	411.638	411.959	412.282	412.602	412.923	413.246	413.567	413.888	414.21	414.531	414.852	415.174	415.495	415.815	416.136	416.458	416.779	417.1	417.421	417.743	418.064	418.384	418.705	419.027	419.348	419.668	419.989	420.311	420.632	420.952	421.273	421.593	421.914	422.236	422.556	422.877	423.197	423.518	423.838	424.16	424.481	424.801	425.121	425.442	425.762	426.083	426.403	426.723	427.044	427.365	427.686	428.006	428.326	428.647	428.967	429.287	429.607	429.927	430.248	430.568	430.888	431.208	431.528	431.848	432.169	432.489	432.809	433.129	433.449	433.769	434.088	434.408	434.728	435.048	435.368	435.688	436.008	436.327	436.647	436.967	437.287	437.606	437.926	438.245	438.565	438.885	439.205	439.523	439.843	440.163	440.483	440.802	441.121	441.44	441.76	442.08	442.4	442.718	443.037	443.357	443.677	443.995	444.315	444.634	444.954	445.272	445.591	445.911	446.229	446.549	446.868	447.186	447.506	447.825	448.143	448.463	448.782	449.1	449.419	449.739	450.057	450.376	450.695	451.013	451.333	451.65	451.97	452.288	452.607	452.926	453.244	453.563	453.881	454.2	454.518	454.837	455.155	455.474	455.792	456.111	456.428	456.748	457.065	457.384	457.702	458.021	458.338	458.658	458.975	459.294	459.612	459.929	460.248	460.566	460.884	461.202	461.519	461.838	462.156	462.475	462.792	463.109	463.428	463.746	464.063	464.382	464.699	465.016	465.335	465.652	465.97	466.288	466.606	466.923	467.242	467.559	467.876	468.193	468.512	468.829	469.146	469.463	469.782	470.099	470.416	470.733	471.05	471.369	471.686	472.003	472.32	472.637	472.954	473.272	473.589	473.906	474.223	474.54	474.857	475.174	475.492	475.809	476.126	476.442	476.759	477.076	477.393	477.71	478.026	478.343	478.66	478.977	479.293	479.61	479.928	480.245	480.562	480.878	481.195	481.512	481.828	482.145	482.461	482.777	483.093	483.41	483.726	484.043	484.359	484.676	484.992	485.309	485.625	485.942	486.258	486.575	486.889	487.206	487.522	487.839	488.155	488.471	488.788	489.104	489.419	489.735	490.051	490.368	490.684	490.999	491.315	491.631	491.947	492.264	492.578	492.895	493.211	493.527	493.842	494.158	494.474	494.79	495.104	495.421	495.737	496.051	496.367	496.683	496.998	497.314	497.63	497.944	498.26	498.576	498.891	499.206	499.522	499.837	500.153	500.469	500.783	501.099	501.413	501.729	502.043	502.359	502.675	502.989	503.305	503.619	503.935	504.249	504.565	504.879	505.195	505.509	505.825	506.139	506.454	506.769	507.084	507.398	507.714	508.028	508.343	508.658	508.973	509.287	509.601	509.917	510.231	510.546	510.86	511.174	511.489	511.803	512.119	512.433	512.747	513.062	513.376	513.69	514.005	514.319	514.633	514.948	515.262	515.576	515.891	516.204	516.518	516.832	517.147	517.461	517.775	518.088	518.403	518.717	519.031	519.344	519.659	519.973	520.287	520.6	520.914	521.229	521.542	521.856	522.169	522.483	522.797	523.111	523.425	523.738	524.052	524.365	524.679	524.992	525.305	525.62	525.934	526.247	526.56	526.874	527.187	527.5	527.814	528.127	528.44	528.753	529.067	529.38	529.693	530.006	530.32	530.633	530.946	531.259	531.572	531.885	532.198	532.512	532.825	533.138	533.451	533.764	534.077	534.39	534.702	535.015	535.328	535.641	535.953	536.266	536.579	536.892	537.204	537.517	537.83	538.142	538.455	538.768	539.08	539.392	539.705	540.018	540.331	540.642	540.955	541.268	541.58	541.893	542.204	542.517	542.83	543.141	543.454	543.766	544.079	544.39	544.703	545.015	545.327	545.639	545.952	546.263	546.575	546.888	547.199	547.511	547.824	548.135	548.447	548.76	549.071	549.383	549.694	550.007	550.319	550.63	550.942	551.253	551.565	551.876	552.189	552.5	552.812	553.123	553.435	553.746	554.058	554.369	554.681	554.992	555.304	555.615	555.927	556.237	556.55	556.86	557.172	557.483	557.795	558.106	558.416	558.728	559.039	559.351	559.662	559.972	560.284	560.595	560.905	561.217	561.528	561.838	562.15	562.46	562.771	563.083	563.393	563.704	564.015	564.326	564.636	564.947	565.258	565.569	565.879	566.189	566.501	566.811	567.122	567.432	567.743	568.054	568.364	568.674	568.984	569.296	569.606	569.916	570.226	570.536	570.847	571.158	571.468	571.778	572.088	572.398	572.708	573.018	573.329	573.639	573.95	574.26	574.57	574.88	575.19	575.5	575.81	576.12	576.429	576.739	577.049	577.359	577.669	577.979	578.289	578.598	578.908	579.218	579.528	579.837	580.147	580.457	580.767	581.076	581.386	581.694	582.004	582.314	582.623	582.933	583.242	583.552	583.862	584.171	584.479	584.789	585.098	585.408	585.718	586.027	586.335	586.645	586.954	587.263	587.573	587.881	588.19	588.5	588.809	589.119	589.426	589.736	590.045	590.354	590.662	590.972	591.281	591.589	591.898	592.207	592.515	592.824	593.134	593.441	593.751	594.06	594.367	594.677	594.986	595.294	595.603	595.912	596.219	596.528	596.836	597.145	597.454	597.762	598.071	598.378	598.687	598.995	599.304	599.611	599.92	600.228	600.537	600.846	601.153	601.462	601.77	602.077	602.386	602.693	603.002	603.309	603.618	603.926	604.234	604.542	604.85	605.158	605.465	605.774	606.081	606.39	606.697	607.004	607.313	607.62	607.927	608.236	608.543	608.85	609.159	609.466	609.773	610.081	610.389	610.696	611.004	611.311	611.618	611.925	612.234	612.541	612.848	613.155	613.463	613.77	614.077	614.384	614.691	614.999	615.306	615.613	615.92	616.227	616.535	616.842	617.149	617.456	617.762	618.069	618.376	618.684	618.991	619.298	619.604	619.911	620.218	620.524	620.831	621.138	621.444	621.751	622.058	622.366	622.672	622.979	623.286	623.592	623.899	624.205	624.512	624.818	625.125	625.431	625.738	626.044	626.349	626.656	626.962	627.269	627.575	627.881	628.188	628.494	628.8	629.107	629.413	629.719	630.024	630.331	630.637	630.943	631.25	631.556	631.861	632.167	632.473	632.779	633.085	633.392	633.696	634.003	634.309	634.615	634.919	635.226	635.532	635.838	636.142	636.448	636.754	637.06	637.365	637.671	637.977	638.282	638.588	638.894	639.198	639.504	639.81	640.114	640.42	640.726	641.031	641.337	641.642	641.947	642.253	642.557	642.863	643.169	643.473	643.779	644.083	644.389	644.693	644.999	645.305	645.609	645.914	646.219	646.524	646.829	647.134	647.438	647.744	648.048	648.354	648.658	648.962	649.268	649.572	649.877	650.181	650.487	650.791	651.095	651.4	651.704	652.01	652.314	652.618	652.923	653.227	653.533	653.836	654.14	654.446	654.75	655.054	655.357	655.663	655.967	656.27	656.576	656.879	657.183	657.488	657.792	658.096	658.4	658.705	659.009	659.312	659.616	659.92	660.225	660.529	660.832	661.136	661.44	661.745	662.048	662.352	662.655	662.959	663.263	663.566	663.871	664.175	664.478	664.782	665.085	665.389	665.692	665.996	666.299	666.602	666.906	667.209	667.514	667.817	668.121	668.424	668.728	669.031	669.334	669.638	669.941	670.244	670.547	670.851	671.154	671.456	671.759	672.062	672.365	672.669	672.972	673.275	673.578	673.881	674.184	674.487	674.791	675.092	675.395	675.698	676.002	676.305	676.608	676.911	677.212	677.515	677.818	678.121	678.424	678.726	679.029	679.332
-20	-20	4.87878	4.79101	4.72596	4.68648	4.63067	4.52104	4.47799	4.48685	4.52086	4.54121	4.57032	4.59066	4.58376	4.58159	4.6015	4.64203	4.68616	4.72397	4.65291	4.57424	4.51299	4.5084	4.53597	4.62333	4.71793	4.95427	4.94668	4.87658	4.80381	4.70696	4.59901	4.55548	4.52934	4.52584	4.51625	4.47902	4.44781	4.44614	4.44338	4.68486	4.67492	4.63594	4.54612	4.42309	4.28114	4.1501	4.04809	3.99305	3.98176	4.02189	4.09722	4.20572	4.31815	4.33973	4.38301	4.42764	4.47077	4.4833	4.49383	4.48336	4.4679	4.46133	4.47582	4.50072	4.53166	4.57226	4.63571	4.71843	4.78309	4.75836	4.75768	4.75212	4.68492	4.40135	4.12587	4.00802	4.1523	4.33477	4.51614	4.61957	4.63769	4.66668	4.6803	4.7053	4.66627	4.66629	4.65975	4.61181	4.56469	4.49325	4.37576	4.26078	4.14869	4.03575	3.93998	3.87616	3.82427	3.72807	3.7647	3.80576	3.85879	3.91966	3.98393	4.04924	4.11745	4.18894	4.25653	4.32922	4.39202	4.4608	4.49101	4.49187	4.50761	4.54051	4.55794	4.56163	4.56005	4.55818	4.54899	4.53771	4.52232	4.48061	4.40218	4.33983	4.41964	4.40265	4.37457	4.34122	4.31082	4.27571	4.24518	4.20997	4.25913	4.26796	4.2577	4.26059	4.25759	4.26878	4.25782	4.24082	4.21852	4.19373	4.1671	4.13832	4.1095	4.08023	4.05116	4.02452	3.99903	3.97749	3.95964	3.95	4.04051	4.07266	4.12158	4.17208	4.22463	4.27354	4.30489	4.31982	4.35349	4.3306	4.28921	4.21938	4.13086	4.02204	4.03537	4.08075	4.12883	4.19966	4.26274	4.34542	4.37346	4.35788	4.36539	4.37022	4.39371	4.4141	4.43651	4.48467	4.5533	4.60681	4.63978	4.66868	4.69562	4.66498	4.61408	4.57279	4.51298	4.50516	4.48073	4.52949	4.59138	4.66799	4.63873	4.63067	4.61408	4.59453	4.57614	4.5789	4.58838	4.56054	4.51511	4.48505	4.47425	4.4664	4.46884	4.46112	4.45993	4.47335	4.46985	4.43136	4.41578	4.40106	4.38917	4.37829	4.37056	4.36477	4.36183	4.36155	4.36339	4.36829	4.37449	4.40543	4.41326	4.42291	4.43607	4.44482	4.45967	4.47177	4.47909	4.48427	4.49198	4.49817	4.5032	4.47803	4.45477	4.44626	4.43849	4.44833	4.49299	4.5383	4.54302	4.52694	4.56285	4.59632	4.63638	4.6759	4.66674	4.64829	4.65916	4.66092	4.68735	4.62593	4.56598	4.53907	4.46591	4.45198	4.46201	4.51291	4.57571	4.52624	4.50857	4.4769	4.43873	4.36098	4.2942	4.2537	4.22931	4.21156	4.1963	4.16518	4.1563	4.18424	4.22264	4.24997	4.26336	4.26577	4.29004	4.30803	4.32499	4.35483	4.38915	4.40156	4.37882	4.36302	4.37908	4.41343	4.44297	4.24635	4.05575	4.14547	4.2287	4.50686	4.52179	4.41115	4.35959	4.33576	4.3422	4.36028	4.43751	4.43001	4.32916	4.26108	4.26504	4.27454	4.28615	4.30286	4.27843	4.25709	4.23378	4.21598	4.19525	4.18063	4.17469	4.16297	4.14407	4.14097	4.15141	4.14055	4.15188	4.15192	4.14688	4.14044	4.13347	4.12527	4.11853	4.10968	4.09945	4.07118	4.02881	4.01187	3.99133	3.98122	3.96811	3.96057	3.98269	3.99258	3.99555	4.00583	4.0285	4.06342	4.09235	4.09189	4.08938	4.0905	4.14064	4.14568	4.16028	4.16623	4.18511	4.18533	4.20334	4.2379	4.26925	4.31473	4.3474	4.40141	4.3809	4.35401	4.31168	4.23865	4.20558	4.13751	4.15378	4.20163	4.2668	4.3846	4.36504	4.34689	4.32795	4.31005	4.28965	4.27065	4.24953	4.22879	4.20876	4.18981	4.17233	4.15671	4.14332	4.13283	4.12536	4.12113	4.12021	4.1227	4.12851	4.13475	4.17946	4.19119	4.2083	4.19674	4.18701	4.16671	4.16021	4.17285	4.17691	4.18696	4.19236	4.22927	4.26283	4.33355	4.37047	4.35759	4.33129	4.34675	4.39453	4.43883	4.45227	4.46995	4.487	4.50582	4.5236	4.54328	4.56137	4.58257	4.60157	4.6251	4.59967	4.56314	4.5361	4.52614	4.48184	4.52414	4.58099	4.64723	4.71235	4.79704	4.85693	4.93056	4.99588	5.05764	5.0511	5.02293	5.00656	4.95895	4.93588	4.93251	4.95862	5.01456	5.08375	5.24292	5.35887	5.43841	5.51686	5.62444	5.70938	5.80784	5.89004	5.65889	5.67125	5.69115	5.73942	5.91925	5.94074	5.93495	5.94067	5.99149	6.09812	6.20514	6.26279	6.36127	6.49956	6.65535	6.78094	6.96683	7.13532	7.31273	7.52345	7.7748	8.06872	8.37559	8.72771	9.08976	9.48672	9.91415	10.3768	10.878	11.4029	11.981	12.7461	13.7599	14.8165	16.1584	17.6673	19.5715	21.5808	23.9213	26.7656	30.2231	33.8637	38.4394	43.9859	51.0196	62.2023	75.4918	96.7538	122.569	151.751	186.887	211.603	229.881	214.58	191.962	167.183	137.273	109.758	86.835	70.5612	54.9433	47.6217	41.8141	34.8804	31.5902	28.2315	23.97	22.5646	20.4832	18.5719	16.8319	15.2949	13.9261	12.8741	11.9728	11.1889	10.525	9.95589	9.52816	9.17366	8.86788	8.53164	8.20884	7.93547	7.68786	7.44407	7.19027	6.96083	6.7471	6.55795	6.39745	6.26246	6.17716	6.11396	6.05648	6.01316	5.95997	5.91784	5.87472	5.83807	5.80324	5.77195	5.73984	5.71302	5.68552	5.65846	5.6318	5.60261	5.56014	5.51123	5.46086	5.40428	5.35304	5.3033	5.25463	5.20722	5.1615	5.10599	5.04219	4.97158	4.91103	4.85112	4.7939	4.74075	4.69556	4.65809	4.62944	4.58152	4.55992	4.52459	4.54274	4.55645	4.52711	4.50272	4.48691	4.47392	4.47161	4.4417	4.41001	4.37915	4.34765	4.31781	4.28685	4.25858	4.2294	4.20316	4.17616	4.15213	4.12747	4.10587	4.08368	4.06283	4.04522	4.02696	4.01021	3.95757	3.90209	3.80962	3.69854	3.82649	3.95314	3.95933	3.97088	3.98216	3.99735	4.01299	4.03086	4.04979	4.06908	4.08986	4.10909	4.13	4.1476	4.16699	4.18523	4.19686	4.21619	4.22624	4.23177	4.24707	4.23334	4.21216	4.18894	4.1296	4.08158	4.03813	3.99129	3.93813	3.89582	3.84771	3.80959	3.76659	3.72171	3.67278	3.65905	3.64837	3.64282	3.63752	3.70587	3.74258	3.76578	3.79014	3.821	3.84952	3.88108	3.8947	3.91173	3.92286	3.93261	3.94066	3.93453	3.90828	3.8933	3.88331	3.8631	3.84927	3.81607	3.79629	3.77575	3.75411	3.74008	3.70739	3.70297	3.68998	3.69185	3.68482	3.67421	3.64791	3.64424	3.68239	3.74654	3.76838	3.76967	3.78032	3.78141	3.79597	3.80063	3.69093	3.58115	3.48949	3.38076	3.32174	3.50505	3.5751	3.63848	3.69441	3.74569	3.7903	3.83392	3.86242	3.85822	3.83167	3.81956	3.85452	3.8768	3.89472	3.88074	3.81791	3.80821	3.80132	3.79702	3.79486	3.7954	3.79753	3.80316	3.81144	3.82233	3.83183	3.84194	3.85278	3.86483	3.87874	3.89606	3.91502	3.9286	3.9397	3.94842	3.95708	3.93259	3.93523	3.90495	3.82067	3.93888	3.93945	3.93928	3.89937	3.87423	3.85299	3.83593	3.82039	3.82453	3.82449	3.82964	3.88656	3.91115	3.91788	3.92555	3.93629	3.93689	3.94903	3.93431	3.92403	3.92437	3.91129	3.88708	3.8526	3.83301	3.78822	3.74165	3.70975	3.70366	3.70057	3.7051	3.77516	3.84094	3.84743	3.86181	3.86881	3.86683	3.85815	3.83329	3.81157	3.79319	3.77079	3.79065	3.81199	3.84211	3.8743	3.91271	3.95821	4.01615	4.0592	4.10891	4.10767	4.09065	4.03781	4.03336	4.02271	3.95738	3.90183	3.81228	3.72057	3.59944	3.60111	3.61068	3.62083	3.71057	3.76805	3.82711	3.85038	3.91158	3.99076	4.06541	4.11173	4.11281	4.11844	4.13544	4.17491	4.2037	4.21331	4.20712	4.17798	4.18067	4.19018	4.20653	4.20457	4.20172	4.19924	4.2	4.19833	4.17166	4.17472	4.19077	4.20484	4.21423	4.24491	4.28964	4.30817	4.32638	4.34329	4.35405	4.35864	4.34247	4.30885	4.27538	4.22265	4.16821	4.15847	4.13336	4.13142	4.12502	4.1212	4.10898	4.1041	4.10716	4.06105	4.01189	3.95553	3.88726	3.869	3.8558	3.88283	3.88823	3.91836	3.94594	3.99068	4.02391	4.09959	4.12598	4.14743	4.1685	4.18697	4.20367	4.17968	4.12805	4.07902	4.0351	3.94168	3.80993	3.74927	3.73527	3.77496	4.03632	4.06613	4.1005	4.12261	4.16962	4.18839	4.21142	4.08168	3.77383	3.18837	4.09636	4.30659	4.31676	4.32526	4.32995	4.3134	4.26373	4.30921	4.27181	4.2126	4.17027	4.10538	4.0536	3.99883	3.9375	3.83329	3.8083	3.78742	3.76983	3.75179	3.81932	3.83678	3.85479	3.87008	3.88468	3.89929	3.91219	3.92493	3.93597	3.94339	3.94156	3.92534	3.92044	3.88433	3.87151	3.83348	3.80312	3.79448	3.79546	3.81544	3.82497	3.85173	3.88107	3.92571	3.99881	4.01819	4.0196	3.99789	4.0224	4.02172	4.02624	4.03529	4.01355	3.99078	3.95788	3.93119	3.89782	3.86835	3.83397	3.81089	3.77483	3.75287	3.74684	3.72724	3.71091	3.73956	3.77646	3.87145	3.94427	4.02012	4.08221	4.1606	4.18716	4.14431	4.06773	4.0347	4.00491	3.97782	3.97614	3.97872	4.0238	4.06693	4.11551	4.14515	4.17681	4.19061	4.2088	4.23454	4.25346	4.26393	4.2705	4.27997	4.28151	4.29209	4.2857	4.28555	4.29228	4.28875	4.28334	4.27306	4.26684	4.25497	4.2477	4.19998	4.14794	4.03723	4.1195	4.18698	4.17595	4.16066	4.14872	4.13396	4.12161	4.08707	3.96344	3.81666	3.67339	3.76459	3.90653	4.01173	3.97526	3.97138	4.02132	4.02228	4.02617	4.04015	4.05619	4.07416	4.09393	4.1153	4.13793	4.16145	4.18553	4.16834	4.12801	4.08223	4.02966	3.94869	3.88093	3.81923	3.79066	3.81512	3.74866
-20	0	4.62069	4.80042	4.95315	5.02508	5.13421	5.24326	5.32113	5.29259	5.26503	5.2056	5.18757	5.13765	5.12733	5.0639	5.01693	5.01366	4.97078	4.94738	4.93905	4.98786	5.05122	5.11192	5.08474	5.04801	5.01377	4.95174	4.88288	4.80373	4.7996	4.78264	4.80259	4.82875	4.89567	4.98037	4.96717	4.92704	4.89965	4.88767	4.866	4.80957	4.74403	4.67016	4.61851	4.59942	4.58753	4.59492	4.65022	4.67469	4.70319	4.75033	4.81622	4.83838	4.86053	4.87434	4.88045	4.87731	4.85342	4.83354	4.80303	4.79643	4.84832	4.84091	4.86408	4.83556	4.8239	4.79822	4.77612	4.76538	4.75758	4.72474	4.69202	4.65292	4.61652	4.56578	4.55176	4.52339	4.51574	4.49362	4.48378	4.45882	4.3833	4.34884	4.3024	4.25706	4.19855	4.18161	4.2062	4.21144	4.24789	4.30944	4.27694	4.28912	4.31751	4.3445	4.35488	4.35401	4.308	4.29788	4.27828	4.23721	4.16578	4.12774	4.13195	4.16135	4.22167	4.37756	4.49345	4.63227	4.65044	4.65169	4.63764	4.64771	4.65044	4.62441	4.59228	4.5581	4.49648	4.43127	4.38368	4.33221	4.27055	4.21739	4.21361	4.2241	4.26149	4.29686	4.34472	4.4073	4.43724	4.46618	4.46205	4.49257	4.50047	4.55093	4.55936	4.54849	4.52098	4.52881	4.49508	4.43103	4.37765	4.29767	4.21286	4.14548	4.10772	4.07062	4.03532	4.0562	4.07894	4.1152	4.15908	4.23109	4.35562	4.4528	4.50478	4.53387	4.52938	4.48797	4.45506	4.42737	4.41459	4.404	4.40251	4.39137	4.39728	4.42514	4.46901	4.52521	4.55561	4.55811	4.60914	4.62802	4.64719	4.68294	4.74099	4.66057	4.69948	4.64846	4.58741	4.54819	4.54746	4.58359	4.61433	4.61741	4.65385	4.72589	4.74555	4.79928	4.84297	4.84271	4.83984	4.84997	4.79068	4.73979	4.68717	4.65647	4.62519	4.59284	4.6072	4.61314	4.64059	4.67305	4.71432	4.75032	4.79238	4.81321	4.8142	4.80116	4.77388	4.75311	4.74185	4.74283	4.72945	4.71079	4.67562	4.54369	4.44603	4.33399	4.30474	4.30893	4.55398	4.6584	4.83398	4.97467	5.08492	5.19463	5.31334	5.42511	5.48027	5.51368	5.47854	5.37199	5.19084	5.01024	4.88174	4.7	4.67926	4.51186	4.16608	4.06369	4.05621	4.08238	4.19153	4.18543	4.19245	4.2873	4.32073	4.43529	4.54684	4.63334	4.68798	4.71225	4.70521	4.61551	4.55328	4.43805	4.42363	4.61716	4.69244	4.7367	4.77596	4.71529	4.64872	4.60395	4.57481	4.54828	4.52176	4.50011	4.64154	4.74711	4.78455	4.79548	4.81606	4.86292	4.91913	5.15876	4.97512	4.9654	4.94393	4.92176	4.86181	4.80326	4.76101	4.70847	4.66934	4.66617	4.63181	4.64136	4.6414	4.65573	4.69119	4.76341	4.8771	4.90922	4.97848	5.02155	5.08015	5.07248	5.09633	5.08447	5.08309	4.99722	4.92299	4.81549	4.75993	4.66881	4.60173	4.56989	4.51517	4.52281	4.51853	4.54137	4.65218	4.7325	4.90658	5.0159	5.11543	5.18703	5.24949	5.26624	5.25555	5.24333	5.23125	5.22986	5.20071	5.16552	5.13647	5.15792	5.1193	5.07237	5.03775	5.00884	4.94168	4.83512	4.76105	4.66418	4.63905	4.51727	4.53461	4.56087	4.65727	4.73624	4.80226	4.83735	4.92105	4.95193	4.96291	4.95279	4.87573	4.85526	4.85818	4.89975	4.9182	4.90454	4.875	4.87661	4.90932	4.95415	5.0455	5.07766	5.12288	5.15149	5.14268	5.05706	4.90464	4.77721	4.67144	4.55536	4.5075	4.54344	4.58319	4.6749	4.76944	4.74158	4.77068	4.81836	4.87037	4.9052	4.9078	4.91973	4.95886	4.97896	4.94214	4.89082	4.79808	4.68594	4.63346	4.61295	4.65418	4.70946	4.68536	4.66944	4.65493	4.6402	4.66049	4.67671	4.68141	4.67834	4.67165	4.68707	4.72346	4.72845	4.74545	4.76989	4.77386	4.75273	4.71399	4.73942	4.79713	4.81715	4.79622	4.76339	4.66632	4.59976	4.54074	4.55568	4.59298	4.66989	4.75314	4.87467	4.87845	4.8471	4.82925	4.82055	4.80501	4.7848	4.78684	4.78222	4.80191	4.81311	4.79083	4.78816	4.78768	4.80595	4.81995	4.82574	4.79279	4.81961	4.81299	4.8071	4.78327	4.77399	4.79805	4.82063	4.88185	4.8853	4.88879	4.90518	4.94265	4.93484	4.89451	4.85383	4.81793	4.82483	4.82305	4.86181	4.90592	4.91025	4.92165	4.9634	4.97352	4.94526	4.94621	4.94267	4.89593	4.8403	4.82953	4.82448	4.89857	4.93642	4.98972	5.04049	5.04859	5.14636	5.34245	5.52782	5.748	5.94763	6.11648	6.19923	6.29941	6.40218	6.42058	6.47293	6.64996	6.95408	7.41152	7.97755	8.572	9.20576	10.1285	11.0079	11.4471	11.7503	12.9503	17.6523	22.172	26.8791	27.4628	39.3955	41.0809	43.9895	45.6649	43.198	38.8574	32.4401	25.3468	21.3023	19.0832	16.5956	14.4948	12.7511	11.372	10.0489	9.12857	8.28696	7.68249	7.182	6.91089	6.661	6.16338	5.94928	5.75449	5.65691	5.63897	5.63912	5.65201	5.43229	5.42651	5.38317	5.32983	5.28855	5.22951	5.10997	5.059	5.00403	4.97368	4.95147	4.93603	4.91799	4.91548	4.88719	4.84587	4.8254	4.82901	4.82865	4.79856	4.71616	4.75001	4.76575	4.77505	4.79803	4.45944	4.53158	4.57358	4.61358	4.64963	4.61626	4.51309	4.46983	4.46384	4.49127	4.55102	4.5976	4.66976	4.67236	4.62615	4.58419	4.54504	4.52742	4.51618	4.53856	4.56438	4.57085	4.55122	4.54477	4.5427	4.54942	4.58797	4.61858	4.65458	4.64977	4.64439	4.61729	4.58981	4.53411	4.50454	4.47497	4.43619	4.37271	4.29945	4.24284	4.19084	4.22041	4.31676	4.42379	4.49452	4.48714	4.48834	4.50464	4.50063	4.52299	4.53925	4.53771	4.5386	4.5572	4.5811	4.56876	4.54768	4.52602	4.49185	4.45289	4.41237	4.37206	4.33672	4.31403	4.3003	4.27302	4.27762	4.26716	4.27796	4.3192	4.33022	4.32837	4.33395	4.32311	4.28557	4.25188	4.22715	4.21477	4.18257	4.1549	4.09182	4.07375	4.04707	4.07229	4.08082	4.08936	4.10298	4.02404	4.21546	4.23722	4.21845	4.20414	4.20284	4.21099	4.2592	4.31931	4.34832	4.32861	4.32987	4.33546	4.37089	4.38686	4.36238	4.33682	4.30322	4.28698	4.2424	4.21548	4.21542	4.22967	4.21443	4.1986	4.21451	4.19525	4.16952	4.11799	4.08757	4.0492	4.02558	4.00298	3.97923	3.93407	3.8607	3.83772	3.84363	3.84971	3.92558	3.98879	4.05636	4.124	4.16468	4.18726	4.21265	4.24076	4.17678	4.10123	3.97407	3.89678	3.88515	3.86144	4.03574	4.1053	4.15501	4.17134	4.2001	4.19954	4.20867	4.19217	4.20117	4.22011	4.23375	4.23915	4.24011	4.17058	4.14993	4.20961	4.26501	4.29576	4.32938	4.34968	4.39067	4.35573	4.27807	4.23597	4.21927	4.24336	4.24978	4.20989	4.17662	4.10708	4.09942	4.01601	4.11967	4.34027	4.37722	4.41728	4.35444	4.39368	4.38568	4.37266	4.35475	4.28012	4.305	4.36545	4.45892	4.51317	4.52237	4.5285	4.52684	4.54381	4.52489	4.50275	4.44674	4.38244	4.2828	4.20134	4.13862	4.08193	4.06104	4.01764	3.99331	3.97254	3.95034	3.92379	3.96193	3.96194	4.0268	4.07601	4.13595	4.16772	4.16483	4.14622	4.13945	4.16721	4.17429	4.19796	4.2347	4.26791	4.29034	4.32294	4.34232	4.40533	4.43503	4.43594	4.43879	4.43047	4.38579	4.38449	4.35166	4.32154	4.35581	4.42196	4.42793	4.44648	4.50638	4.51889	4.54587	4.63026	4.6965	4.68464	4.59675	4.51711	4.40658	4.30196	4.26947	4.22258	4.21485	4.18221	4.16546	4.18766	4.2296	4.2869	4.33653	4.37635	4.4404	4.4787	4.50174	4.52815	4.52256	4.51079	4.53797	4.56497	4.53665	4.5038	4.48583	4.47655	4.48695	4.49263	4.50344	4.49126	4.45928	4.38087	4.32577	4.26652	4.26377	4.25423	4.25521	4.27698	4.29757	4.31743	4.33783	4.35115	4.37224	4.43844	4.49982	4.5258	4.52994	4.56352	4.59788	4.62407	4.65988	4.69972	4.69832	4.66905	4.65862	4.62975	4.61019	4.55837	4.51398	4.48777	4.4536	4.45178	4.48645	4.46332	4.44119	4.40313	4.37947	4.35054	4.34861	4.32778	4.30011	4.25818	4.27507	4.26159	4.28458	4.36816	4.41049	4.47052	4.55056	4.58316	4.57945	4.54973	4.50863	4.53022	4.60075	4.64742	4.7021	4.74194	4.78222	4.80472	4.7357	4.64826	4.57866	4.48495	4.47328	4.5193	4.57525	4.58646	4.56715	4.54903	4.51398	4.50253	4.4792	4.52252	4.57394	4.6201	4.66401	4.71896	4.72046	4.68909	4.68268	4.68775	4.70113	4.72947	4.75149	4.78424	4.77768	4.7394	4.63994	4.55265	4.45655	4.5438	4.55163	4.50576	4.44995	4.40729	4.38206	4.35381	4.33531	4.2986	4.26407	4.21933	4.16942	4.11156	4.09365	4.07475	4.07547	4.09402	4.09721	4.10703	4.10515	4.11035	4.13973	4.16329	4.2062	4.2911	4.34551	4.42261	4.49793	4.54714	4.59497	4.62119	4.61537	4.55567	4.53256	4.47711	4.39919	4.31226	4.20426	4.13875	4.07098	4.06096	4.05407	4.06904	4.07112	4.11997	4.16274	4.22296	4.27654	4.21282	4.14486	4.0507	3.99163	3.93875	3.88927	3.85563	3.8844	3.90002	3.95211	4.02704	4.16506	4.27181	4.31794	4.34417	4.32171	4.29902	4.27689	4.27052	4.25813	4.18829	4.03466	3.91484	3.82785	3.75911	3.72097	3.68169	3.704	3.72967	3.77025	3.86081	3.96437	4.04037	4.12922	4.23275	4.23934	4.22992	4.25279	4.27222	4.32666	4.38661	4.44303	4.4747	4.50532	4.55436	4.56545	4.55455	4.48323	4.37403	4.28635	4.20038	4.12662	4.05725	4.00171	3.97338	4.0607	4.11501	4.1766	4.22997	4.23894	4.27826	4.17803	4.16951
-20	20	3.71499	3.80777	3.95659	4.09875	4.23074	4.35619	4.47259	4.57853	4.66681	4.71288	4.73089	4.7388	4.7337	4.70378	4.67651	4.64229	4.6107	4.57731	4.54554	4.51632	4.48742	4.46538	4.44152	4.42699	4.40852	4.39971	4.395	4.37429	4.33812	4.30306	4.26743	4.21503	4.21029	4.21153	4.27078	4.3172	4.34775	4.39206	4.38985	4.38597	4.38237	4.37666	4.37323	4.36573	4.36119	4.35137	4.34553	4.33094	4.32591	4.32405	4.31123	4.28855	4.27322	4.25635	4.24487	4.23057	4.2361	4.23213	4.2315	4.22974	4.23595	4.24688	4.25269	4.27635	4.2993	4.32298	4.34895	4.37308	4.38809	4.3986	4.41431	4.42577	4.44083	4.45057	4.44744	4.42491	4.38606	4.35554	4.3173	4.26633	4.21295	4.16563	4.11357	4.06185	4.02989	3.98498	3.96079	3.92966	3.98881	4.06187	4.12428	4.16205	4.16583	4.16904	4.20508	4.30404	4.38085	4.45803	4.54042	4.61514	4.66541	4.72403	4.74102	4.69914	4.62769	4.55351	4.46822	4.37981	4.26747	4.14854	4.05583	3.94755	3.93036	3.93759	3.94846	3.95647	3.96712	3.98201	4.00116	4.03362	4.07016	4.10963	4.14206	4.17022	4.19587	4.21368	4.20886	4.15532	4.13278	4.14521	4.17142	4.20367	4.24984	4.30201	4.32531	4.30238	4.2826	4.25787	4.23496	4.20967	4.1854	4.16103	4.12863	4.1027	4.08833	4.0317	4.03733	4.03966	4.05217	4.06131	4.08015	4.11473	4.15326	4.22269	4.26109	4.28139	4.28767	4.27626	4.25346	4.17193	4.1689	4.17703	4.20586	4.22598	4.24402	4.25077	4.26544	4.2804	4.28263	4.2862	4.27086	4.24594	4.21668	4.14511	4.08156	4.0188	3.97173	3.99088	4.02901	4.06252	4.11202	4.17742	4.28698	4.38058	4.45002	4.5039	4.53123	4.56129	4.5728	4.57533	4.56836	4.57617	4.48643	4.39355	4.24671	4.16082	4.05641	4.02594	4.26065	4.41447	4.26229	3.93118	4.19126	4.27343	4.47831	4.41766	4.45254	4.5603	4.59572	4.62469	4.60645	4.56358	4.51919	4.4823	4.44095	4.42095	4.39568	4.34681	4.35931	4.38608	4.42484	4.46178	4.51099	4.55644	4.60892	4.6434	4.66888	4.68183	4.68655	4.67331	4.65973	4.64577	4.63227	4.61812	4.60508	4.59166	4.57862	4.56462	4.55138	4.5392	4.52703	4.51459	4.49301	4.47295	4.45318	4.43256	4.41835	4.40032	4.38413	4.3678	4.37254	4.37469	4.38335	4.39565	4.38929	4.37125	4.36833	4.34845	4.3225	4.30008	4.27265	4.24772	4.21979	4.19336	4.16648	4.14007	4.11632	4.09207	4.06942	4.05025	4.02442	3.97156	3.91844	3.87118	3.90747	3.90157	3.85963	3.86535	3.87541	3.8883	3.90563	3.92775	3.99188	4.02746	4.07274	4.11103	4.14246	4.15757	4.17361	4.18465	4.19711	4.2024	4.21178	4.21284	4.21689	4.19218	4.18405	4.17536	4.14519	4.13758	4.10336	4.08063	4.06393	4.05505	4.05065	4.04588	4.05087	4.05626	4.06875	4.08317	4.10275	4.12517	4.15122	4.18056	4.21174	4.18271	4.17259	4.15726	4.14086	4.13423	4.12425	4.07445	4.04166	4.00372	3.99614	4.02021	4.0346	4.03755	4.03465	4.04763	4.01369	3.97414	3.93781	3.90523	3.87734	3.85078	3.86892	3.87004	3.8749	3.88135	3.89075	3.90254	3.91744	3.93495	3.9575	3.98164	4.00758	4.02812	4.05072	4.07352	4.09895	4.10321	4.08887	4.07189	4.06321	4.06546	4.07449	4.12008	4.09062	3.99778	3.97978	3.96468	3.97129	3.97507	3.98549	3.99231	4.0361	4.00802	3.94631	3.88142	3.80446	3.73446	3.63256	3.56561	3.52189	3.47636	3.45221	3.43895	3.40324	3.46475	3.55279	3.6677	3.76691	3.87688	3.98225	3.98388	4.01641	4.08256	4.14434	4.12979	4.12567	4.15282	4.18285	4.2408	4.28876	4.34858	4.40941	4.46992	4.51747	4.50898	4.50388	4.48925	4.47571	4.45738	4.43681	4.4144	4.38785	4.35816	4.32949	4.29838	4.27267	4.24812	4.22689	4.20367	4.19468	4.18506	4.18529	4.20548	4.23851	4.26075	4.26835	4.28968	4.30624	4.32683	4.34947	4.37695	4.40546	4.45316	4.46274	4.45603	4.48066	4.50795	4.54333	4.58198	4.65291	4.70914	4.76184	4.80677	4.85816	4.9073	4.97141	5.03322	5.06069	5.08866	5.10427	5.13146	5.14144	5.15432	5.16594	5.20774	5.28333	5.36361	5.45052	5.55107	5.65619	5.75866	5.8484	5.9481	6.15511	6.31527	6.43564	6.48342	6.57116	6.66825	6.77229	6.88647	7.01098	7.1468	7.2945	7.49272	7.74978	8.06961	8.43139	8.74131	9.1531	9.53197	10.0333	10.4986	11.0626	11.6616	12.34	13.2806	14.4392	15.4424	16.853	18.3853	20.2801	22.3241	24.894	27.8969	31.8078	36.339	44.7066	52.7232	63.2978	77.4192	95.158	122.13	146.272	175.32	198.347	207.004	197.388	173.388	142.82	112.979	89.4776	71.7473	56.8418	50.2763	41.2841	36.9309	28.4379	28.1434	24.1652	21.3034	19.3432	16.7667	15.5097	14.5995	13.8909	13.1524	12.319	11.6136	10.9706	10.2732	9.79002	9.18979	8.77919	8.47632	8.25327	8.06939	7.8533	7.62196	7.40278	7.19673	7.0022	6.81797	6.64482	6.48208	6.32845	6.18174	6.02988	5.83804	5.77897	5.72971	5.68265	5.63936	5.59769	5.56985	5.51417	5.4856	5.43522	5.38532	5.33509	5.28921	5.23028	5.17581	5.12134	5.07485	5.02783	4.98563	4.94329	4.90561	4.86792	4.83464	4.79343	4.75972	4.72872	4.69786	4.67042	4.64184	4.61685	4.59029	4.56747	4.54274	4.52179	4.49863	4.47888	4.45686	4.44471	4.42405	4.39891	4.30691	4.2318	4.16099	4.09279	4.05754	4.11102	4.11636	4.1117	4.10769	4.10503	4.06296	4.33862	4.39968	4.38478	4.35289	4.3205	4.28761	4.2581	4.24146	4.22322	4.21085	4.15628	4.11417	4.05958	3.95309	3.92362	3.89836	3.96296	4.01741	4.04192	4.05778	4.03057	4.00638	3.98505	3.97837	3.94694	3.9149	3.88294	3.85608	3.84685	3.8388	3.84532	3.82508	3.78885	3.75296	3.72357	3.70111	3.69121	3.6824	3.68956	3.70364	3.69855	3.72664	3.74979	3.77589	3.80584	3.83944	3.87457	3.89701	3.9263	3.96919	4.01205	4.05408	4.0955	4.13516	4.16728	4.19717	4.21967	4.23588	4.24992	4.2212	4.17887	4.12378	4.03979	3.96924	3.88755	3.80989	3.73808	3.66332	3.56726	3.52028	3.48265	3.46294	3.44833	3.44043	3.43075	3.48172	3.52784	3.57732	3.62403	3.67506	3.73956	3.78975	3.81782	3.83334	3.8148	3.79542	3.77911	3.76127	3.74725	3.73254	3.7202	3.70915	3.69904	3.69271	3.68598	3.67302	3.67074	3.66269	3.69289	3.71962	3.74473	3.76454	3.78555	3.80719	3.83308	3.85592	3.87951	3.91455	3.91236	3.90817	3.90267	3.85403	3.83197	3.80812	3.74444	3.71769	3.69978	3.67896	3.67225	3.65399	3.69728	3.70579	3.76521	3.75503	3.74537	3.73477	3.7172	3.70566	3.68325	3.67128	3.648	3.63661	3.61495	3.60525	3.58194	3.58035	3.5731	3.57567	3.5698	3.58398	3.58673	3.62564	3.65671	3.70186	3.73971	3.78849	3.8392	3.90362	3.95149	3.99136	4.01032	4.01565	3.99619	3.97853	3.96252	3.94744	3.9339	3.92215	3.92043	3.89379	3.82182	3.74199	3.67414	3.60267	3.52928	3.47647	3.40331	3.43902	3.45036	3.4793	3.52219	3.56164	3.60073	3.64378	3.68871	3.73194	3.76115	3.77561	3.77707	3.79868	3.82149	3.84387	3.85398	3.85326	3.85413	3.85769	3.85299	3.84745	3.80094	3.76494	3.72594	3.69854	3.71547	3.71078	3.71395	3.7403	3.77234	3.77365	3.7752	3.78188	3.78719	3.79971	3.80882	3.86825	3.90309	3.92625	3.95346	3.96927	3.98553	4.00234	4.01775	4.0352	4.04971	4.04114	4.00305	4.02537	4.0546	4.08824	4.10871	4.11047	4.11341	4.11435	4.12175	4.12329	4.1302	4.13298	4.13918	4.13157	4.12235	4.11371	4.10601	4.0947	4.07014	4.05925	4.05192	4.04197	4.03297	4.02301	4.01244	4.00356	4.00719	3.97262	3.95642	3.92616	3.89155	3.90045	3.90921	3.92593	3.94609	3.96915	4.08724	4.11353	4.06355	3.88843	3.98905	4.08129	4.13321	4.2027	4.20084	4.16934	4.14934	4.13139	4.1065	4.08748	4.06466	4.02795	4.0211	4.01537	4.01124	4.01132	4.01024	4.0352	4.05481	4.0669	4.08692	4.11371	4.13034	4.14995	4.16943	4.18254	4.20093	4.22756	4.245	4.23751	4.21975	4.17692	4.13102	4.09345	4.0412	3.99247	3.94605	3.90325	3.85863	3.81898	3.77957	3.74566	3.7151	3.68946	3.67188	3.65454	3.68719	3.64441	3.63774	3.69337	3.75418	3.82012	3.9024	3.972	4.0266	4.04247	4.05983	4.07674	4.06145	4.02896	4.00075	3.96235	3.93472	3.89496	3.86413	3.81787	3.79405	3.77058	3.75434	3.73698	3.72626	3.7324	3.7294	3.73578	3.74598	3.74756	3.76277	3.77847	3.79714	3.81608	3.83709	3.85883	3.86374	3.86136	3.85819	3.84699	3.82782	3.80796	3.79075	3.77359	3.75894	3.74497	3.73333	3.72276	3.71438	3.7075	3.70276	3.69995	3.69933	3.70115	3.70571	3.71299	3.72306	3.73608	3.75175	3.76979	3.78984	3.81148	3.82016	3.83101	3.84002	3.84599	3.82888	3.82022	3.88342	3.89326	3.90353	3.91309	3.92345	3.93216	3.94191	3.94876	3.95674	3.96076	3.96931	3.97202	3.97701	3.96462	3.94585	3.9322	3.90845	3.85981	3.83988	3.81358	3.80009	3.77969	3.75459	3.76407	3.78138	3.86899	3.91222	3.96933	4.02494	4.09153	4.12355	4.14293	4.15419	4.15237	4.14196	4.13778	4.13207	4.12525	4.13074	4.14229	4.15418	4.14057	4.12855	4.10587	4.09044	4.06687	4.04678	4.02314	4.0002	3.98325	3.95896	3.94211	3.91682	3.89853	3.87235	3.85053	3.89718	3.9043	3.90422	3.83953	3.70791	3.55238
0	-20	3.69228	3.94804	4.16848	4.35686	4.49527	4.69622	4.77	4.83863	4.67091	4.60591	4.61172	4.67197	4.83739	4.94974	5.04761	5.03138	4.95152	4.86472	4.79383	4.69837	4.68538	4.71332	4.706	4.70878	4.70902	4.71135	4.71533	4.73013	4.72972	4.72305	4.72035	4.7071	4.69564	4.67705	4.65921	4.59344	4.55306	4.53185	4.52219	4.51668	4.51965	4.53204	4.55185	4.58689	4.5998	4.60396	4.61246	4.61864	4.62857	4.63704	4.64698	4.65631	4.66742	4.68747	4.68496	4.6831	4.67657	4.67	4.63235	4.59293	4.56611	4.55588	4.52038	4.52239	4.52311	4.52536	4.5832	4.61318	4.65269	4.67266	4.69732	4.72849	4.73363	4.73524	4.70467	4.6763	4.65555	4.63164	4.60782	4.58775	4.56642	4.55048	4.53524	4.53462	4.51355	4.53668	4.55286	4.53005	4.51455	4.49815	4.46325	4.42231	4.40077	4.38826	4.37651	4.37386	4.38325	4.39295	4.40272	4.42098	4.44283	4.4672	4.49125	4.51977	4.53432	4.52296	4.51096	4.5056	4.51832	4.52274	4.53054	4.5381	4.55394	4.56856	4.4917	4.4249	4.41163	4.47183	4.48137	4.49193	4.51354	4.58273	4.59811	4.64363	4.72995	4.69957	4.68501	4.6704	4.65915	4.6488	4.65242	4.62252	4.59405	4.55631	4.5308	4.53586	4.53278	4.53709	4.53765	4.53747	4.51661	4.49202	4.45284	4.44739	4.44292	4.44316	4.47854	4.4977	4.47226	4.4798	4.48726	4.50253	4.52137	4.54484	4.58005	4.59275	4.59945	4.60772	4.65072	4.69127	4.733	4.78048	4.78444	4.83011	4.85655	4.86371	4.86486	4.71629	4.69089	4.66724	4.64502	4.64398	4.61752	4.59524	4.52061	4.46272	4.39817	4.33748	4.27926	4.2997	4.33831	4.37416	4.42355	4.46923	4.49796	4.41444	4.35427	4.29942	4.26201	4.21702	4.18382	4.22011	4.22819	4.30314	4.36347	4.45327	4.53576	4.56546	4.58967	4.61866	4.55803	4.53275	4.51772	4.4972	4.51273	4.51523	4.51173	4.52543	4.5321	4.57368	4.63169	4.71001	4.78312	4.84911	4.89566	4.91474	4.91645	4.915	4.87912	4.77908	4.72793	4.67396	4.62641	4.65703	4.65893	4.66635	4.64167	4.63731	4.66258	4.7091	4.76547	4.80536	4.78623	4.71245	4.45022	4.46153	4.44416	4.42587	4.42403	4.4331	4.43845	4.45382	4.44562	4.47642	4.48191	4.48747	4.52949	4.56162	4.59092	4.58862	4.58272	4.57358	4.59029	4.57952	4.57463	4.56627	4.55498	4.49913	4.44691	4.41225	4.41373	4.40954	4.45394	4.50086	4.56741	4.63125	4.67955	4.79504	4.82843	4.84026	4.85372	4.84204	4.82307	4.77161	4.70509	4.64103	4.57362	4.5153	4.4481	4.32818	4.2493	4.17952	4.12511	4.05746	3.96733	3.97568	4.00139	4.03156	4.08924	4.13276	4.21793	4.25748	4.29183	4.31567	4.3165	4.31804	4.32596	4.3328	4.34606	4.35813	4.37449	4.39148	4.39898	4.37353	4.3487	4.28442	4.23048	4.11021	4.01836	3.90743	3.80321	3.71229	3.63019	3.65342	3.65146	3.67524	3.72084	3.7831	3.86166	3.94152	3.99988	4.07216	4.14518	4.14617	4.15836	4.17049	4.18699	4.20572	4.2261	4.25088	4.27575	4.25611	4.23298	4.21704	4.19005	4.18145	4.17199	4.17076	4.19921	4.22607	4.26061	4.29073	4.31796	4.34709	4.37526	4.36196	4.36343	4.36519	4.37183	4.37707	4.42133	4.44182	4.46016	4.48043	4.4951	4.51039	4.51991	4.52939	4.54317	4.54399	4.52752	4.51848	4.47711	4.42979	4.37294	4.30371	4.23156	4.15483	4.07912	3.99698	3.91614	3.83293	3.75303	3.67212	3.85236	4.00391	4.23211	4.38189	4.42437	4.47031	4.45585	4.42184	4.38167	4.34685	4.31756	4.30112	4.28167	4.26638	4.25748	4.23253	4.24151	4.25914	4.279	4.30212	4.32913	4.35652	4.3879	4.41808	4.45152	4.483	4.49058	4.4783	4.46355	4.43324	4.41234	4.39487	4.38122	4.37312	4.3691	4.43632	4.46976	4.51554	4.57087	4.64087	4.72312	4.79039	4.78259	4.76184	4.74492	4.71937	4.6968	3.1584	4.56241	4.62513	4.59931	4.57527	4.37904	4.38881	4.39308	4.4476	4.63696	4.46856	4.67878	4.91027	5.06304	5.14776	5.23584	5.31637	5.38606	5.454	5.52068	5.5854	5.66857	5.73818	5.77585	5.69969	5.57619	5.50456	5.46437	5.4645	5.50705	5.5885	5.72122	5.96491	6.24125	6.46408	6.53062	6.48986	6.62402	6.81202	7.06097	7.33586	7.56879	7.8527	8.15106	8.28473	8.41211	8.50292	8.54681	8.6647	8.78419	8.97876	9.19912	9.53371	9.85624	10.3215	10.7417	11.3503	11.9847	12.729	13.8212	14.9015	16.0965	17.6103	19.17	20.9362	22.761	24.9258	27.491	30.6571	34.5999	42.2387	49.6119	56.9932	64.9657	81.44	101.121	126.078	151.768	193.367	229.368	248.577	255.005	231.487	193.24	157.321	124.069	98.7402	78.9459	66.0589	55.9114	48.692	42.0846	36.768	32.1865	25.0844	23.9438	21.8051	19.8503	18.3515	16.9045	15.6475	14.6676	13.5461	12.7385	12.059	11.4348	10.9158	10.4941	10.1492	9.8738	9.53379	9.17363	8.91862	8.67309	8.4417	8.23129	8.02993	7.83429	7.62654	7.39941	7.18234	6.96903	6.77458	6.58045	6.39791	6.22088	6.13727	6.06468	6.00599	5.95594	5.91377	5.87546	5.84233	5.80688	5.7795	5.75709	5.69017	5.63882	5.58818	5.5244	5.45174	5.37645	5.30115	5.23148	5.16089	5.08083	5.03251	4.98977	4.95135	4.91473	4.88966	4.86791	4.87098	4.892	4.90862	4.92727	4.95126	4.98237	5.00669	5.00713	5.00396	4.97831	4.96064	4.94212	4.9212	4.90644	4.87857	4.78974	4.744	4.69938	4.66565	4.62556	4.62442	4.65826	4.68961	4.73846	4.78044	4.70855	4.60781	4.51595	4.42568	4.33818	4.25231	4.16291	4.07105	3.9906	3.95181	4.01582	4.05273	4.08343	4.14579	4.20292	4.25269	4.32178	4.36164	4.43681	4.44186	4.39315	4.30077	4.22637	4.15681	4.07176	3.99299	3.88674	3.87429	3.86137	3.93972	3.97362	4.04124	4.0539	4.08158	4.1016	4.10444	4.10037	4.10072	4.09355	4.06535	4.03759	3.97934	3.91487	3.84893	3.78769	3.74128	3.67169	3.6438	3.59417	3.59597	3.60733	3.63353	3.65089	3.67386	3.69997	3.72993	3.76207	3.79665	3.83229	3.87084	3.90623	3.95751	3.98556	4.02197	4.06454	4.08217	4.08518	4.09473	4.05482	4.03362	4.00441	3.95914	3.92936	3.84467	3.83985	3.81848	3.7869	3.7838	3.77933	3.82594	3.86438	3.88137	3.89887	3.92034	3.94849	3.97123	3.99344	3.99738	4.00254	4.00461	3.99466	3.98998	3.98627	3.98086	3.97847	3.97025	3.95375	3.93314	3.91949	3.90004	3.8898	3.87016	3.85191	3.83709	3.82461	3.83516	3.83304	3.8225	3.84746	3.87027	3.86096	3.85376	3.84232	3.83352	3.82088	3.81064	3.79735	3.78166	3.76608	3.7452	3.75229	3.77047	3.81562	3.85842	3.88935	3.87266	3.8643	3.87759	3.88449	3.88736	3.87301	3.8632	3.86237	3.86944	3.87419	3.87798	3.89988	3.87631	3.85881	3.84069	3.85843	3.94732	4.07974	4.16701	4.26064	4.31805	4.33529	4.35103	4.37499	4.38327	4.39209	3.80437	3.58255	3.60928	3.66444	3.73822	3.81947	3.935	3.96871	3.99062	3.98554	3.96854	3.95116	3.93564	3.92211	3.89568	3.84512	3.80094	3.7678	3.7393	3.80681	3.87573	3.93565	3.94859	3.96155	3.97382	3.98691	3.99679	4.00906	4.01798	4.03018	4.04074	4.05465	4.07013	4.0867	4.10661	4.12574	4.14873	4.16925	4.19137	4.21058	4.22734	4.23213	4.22752	4.23589	4.23258	4.2265	4.21991	4.21476	4.20856	4.20365	4.19656	4.18754	4.18171	4.17846	4.17596	4.17767	4.17253	4.16762	4.18129	4.19796	4.21563	4.23638	4.25745	4.28118	4.30469	4.32076	4.35712	4.32712	4.33974	4.35526	4.37364	4.39471	4.41812	4.44358	4.47002	4.48246	4.44532	4.42762	4.40264	4.34894	4.3005	4.24703	4.20651	4.14777	4.12903	4.1664	4.18543	4.20258	4.22511	4.22766	4.25005	4.27677	4.2764	4.25708	4.24023	4.22245	4.21845	4.19184	4.16078	4.13029	4.10151	4.0747	4.04764	4.02315	4.02381	4.02047	4.0274	4.02917	4.03463	4.01094	4.01592	4.01764	4.02502	4.03508	4.04967	4.06674	4.09137	4.11547	4.11821	4.12251	4.12669	4.13289	4.03655	3.95024	3.86096	3.82685	3.80466	4.03954	4.08861	4.10507	4.09667	4.09422	4.21042	4.21563	4.21957	4.11297	4.11525	3.94093	3.8586	4.00184	4.10379	4.21972	4.27932	4.30074	4.30659	4.28414	4.23095	4.17326	4.1076	4.04918	3.98341	3.92645	3.86364	3.80507	3.75503	3.7031	3.64569	3.61703	3.59083	3.64784	3.68327	3.73938	3.79729	3.85856	3.91641	3.98464	4.04899	4.08031	4.09559	4.11096	4.11339	4.09845	4.10382	4.11054	4.10387	4.08434	4.09857	4.08458	4.07645	4.01844	3.9592	3.91036	3.84966	3.80434	3.74218	3.74616	3.81286	3.86165	3.91945	3.98442	4.03794	4.10875	4.10103	4.06606	4.03514	4.0031	3.97807	3.94982	3.92926	3.9065	3.91172	3.89664	3.89656	3.89443	3.90722	3.94607	3.96487	3.99433	4.01732	4.04035	4.06306	4.08758	4.10732	4.12567	4.13533	4.14228	4.14843	4.15547	4.16168	4.16871	4.17536	4.18186	4.18838	4.19473	4.19122	4.19454	4.19783	4.2016	4.20452	4.20783	4.21069	4.21354	4.21675	4.21337	4.21903	4.22191	4.21823	4.23492	4.24935	4.25608	4.2584	4.24733	4.2387	4.22675	4.21605	4.20302	4.18952	4.17415	4.16086	4.14377	4.1264	4.11689	4.10398	3.99298	3.88074	3.82503	3.78941	3.7886	3.91967	3.96203	3.98834	4.01631	4.03925	4.04074	4.04745	4.124	4.14961	4.17673	4.19226	4.20748	4.2133	4.2109	4.19916	4.17637	4.14746
0	0	3.24239	3.66476	4.04397	4.37417	4.60631	4.74149	4.82141	4.87283	4.90713	4.92955	4.93538	4.87602	4.83324	4.79928	4.77307	4.75214	4.7313	4.6999	4.66717	4.63932	4.60459	4.57105	4.57546	4.56146	4.5508	4.54001	4.53292	4.51127	4.48123	4.469	4.51266	4.53693	4.55897	4.59099	4.62045	4.65776	4.69248	4.68324	4.6488	4.61959	4.59215	4.56725	4.54619	4.52295	4.5065	4.48444	4.46985	4.45248	4.43975	4.41923	4.40461	4.3847	4.34553	4.3411	4.32904	4.33232	4.33671	4.34712	4.35841	4.37427	4.39131	4.41124	4.43629	4.46078	4.48531	4.50591	4.52939	4.55046	4.57083	4.56014	4.56421	4.57296	4.5705	4.55464	4.54747	4.54579	4.54222	4.54245	4.54076	4.54405	4.54835	4.55418	4.56773	4.57798	4.58437	4.58815	4.61483	4.61068	4.58215	4.55306	4.52148	4.48989	4.45366	4.42288	4.39808	4.36052	4.34562	4.32989	4.31763	4.30871	4.30344	4.33778	4.31577	4.31844	4.3214	4.40318	4.4447	4.46149	4.47277	4.4802	4.45524	4.44083	4.43185	4.38125	4.31782	4.27825	4.24754	4.21608	4.19252	4.16962	4.18896	4.18989	4.1909	4.19562	4.20778	4.20661	4.23943	4.26748	4.33535	4.35632	4.36516	4.39654	4.40781	4.43983	4.43951	4.44042	4.44291	4.45144	4.46291	4.46586	4.50969	4.53755	4.58318	4.54168	4.28499	4.25799	4.28379	4.31745	4.37509	4.41929	4.4538	4.48666	4.51137	4.53268	4.5476	4.5631	4.56955	4.55358	4.52582	4.48808	4.45803	4.42469	4.38919	4.35565	4.3276	4.25912	4.25421	4.25211	4.25636	4.27878	4.30765	4.33147	4.36135	4.3873	4.4173	4.44513	4.46769	4.50253	4.51972	4.53982	4.54295	4.5449	4.54516	4.54378	4.54322	4.53858	4.53425	4.52671	4.51891	4.50966	4.50347	4.49235	4.48041	4.46302	4.45202	4.44048	4.43145	4.42199	4.41597	4.40779	4.40743	4.40311	4.40275	4.40412	4.42644	4.4526	4.48213	4.31183	3.50214	3.99932	4.6245	4.6624	4.69917	4.73871	4.80159	4.82049	4.83477	4.80416	4.78098	4.77553	4.77031	4.76567	4.75939	4.7706	4.77164	4.7736	4.77894	4.77809	4.79267	4.81042	4.81888	4.8152	4.80844	4.72713	4.69571	4.65307	4.61356	4.55885	4.54299	4.52634	4.51292	4.54166	4.54468	4.56141	4.56731	4.57327	4.57515	4.57494	4.56199	4.5411	4.49989	4.46775	4.4332	4.37662	4.28818	4.10307	3.9531	3.8408	3.86312	3.9397	4.18559	4.38878	4.57408	4.73574	4.81617	4.81242	4.7652	4.63021	4.54862	4.46396	4.39081	4.32028	4.25509	4.20309	4.15872	4.06257	3.99514	3.93466	3.93111	3.94935	3.99803	4.07239	4.18768	4.28232	4.37503	4.4653	4.54431	4.66084	4.70257	4.71515	4.71371	4.70084	4.68964	4.65454	4.61638	4.57742	4.51527	4.41969	4.2941	4.1839	4.07078	4.05421	4.01986	4.00632	4.00544	4.00299	4.01513	4.02954	4.04884	4.0759	4.10279	4.12288	4.10627	4.07405	4.07092	4.07147	4.07468	4.08277	4.09184	4.10428	4.11392	4.1287	4.14484	4.16112	4.17636	4.19252	4.2088	4.22383	4.23997	4.20786	4.17576	4.14296	4.11146	4.08414	4.09839	4.12987	4.15193	4.17418	4.14832	4.12512	4.09635	4.07127	4.04516	4.0243	4.0019	3.98467	3.98893	4.04295	4.08249	4.11479	4.15331	4.18989	4.22192	4.2574	4.26607	4.2556	4.27046	4.31007	4.33779	4.37225	4.36243	4.35025	4.33661	4.32383	4.3124	4.30213	4.29239	4.28469	4.28085	4.27976	4.28596	4.29213	4.31243	4.3527	4.41139	4.45557	4.49988	4.54205	4.58044	4.61701	4.65067	4.63465	4.65646	4.64434	4.61144	4.56069	4.49856	4.42367	4.34276	4.25221	4.17345	4.29631	4.34645	4.37989	4.40034	4.38261	4.37575	4.41052	4.46931	4.55384	4.66226	4.78394	4.82005	4.8175	4.78005	4.6994	4.65805	4.62258	4.63722	4.64249	4.67439	4.73461	4.712	4.73456	4.75747	4.78817	4.81054	4.85222	4.88822	4.92785	4.98449	5.02359	5.07458	5.10152	5.09867	5.08964	5.08118	5.06999	5.05848	5.04741	5.03922	5.03211	5.03131	5.03262	5.02273	4.99953	4.96997	4.98406	5.01564	5.07311	5.13212	5.17082	5.21392	5.26238	5.32322	5.38858	5.44714	5.53918	5.68084	5.81674	5.94676	6.06888	6.20675	6.33244	6.47241	6.61713	6.76529	6.91556	7.06565	7.19043	7.28701	7.20071	7.12504	7.07347	7.07171	7.11007	7.21446	7.40676	7.51984	7.5805	8.40542	8.91771	9.49525	10.1002	10.4094	10.8458	11.5839	11.5899	12.124	12.9848	13.8831	14.7716	15.8673	17.1766	18.5903	20.2328	22.1621	24.5161	26.9392	30.0312	34.3427	39.4078	46.7065	56.5483	67.256	81.1516	100.009	124.233	152.805	186.709	217.823	238.404	241.405	217.491	187.258	151.926	119.81	95.2025	76.217	62.8518	50.9792	42.3617	39.0933	35.3068	31.9595	28.1278	25.1715	22.4891	20.2889	18.289	16.6558	15.2507	14.1875	13.2486	12.4314	11.7626	11.2487	10.7828	10.3473	10.0219	9.65493	9.27271	9.05412	8.79471	8.50997	8.17628	7.85265	7.56782	7.35476	7.15314	6.95318	6.65415	6.40291	6.25967	6.38382	6.4652	6.39228	6.32096	6.26416	6.19309	6.09347	5.98878	5.88234	5.77694	5.67301	5.57159	5.47626	5.37671	5.29286	5.20362	5.16058	5.12237	5.09484	5.06872	5.05273	5.03375	5.03797	5.02602	5.08553	5.08804	5.08607	5.08676	5.04861	5.0395	5.01893	5.04438	5.00628	4.9685	4.93916	4.83912	4.79419	4.74621	4.7071	4.66489	4.64063	4.61785	4.59293	4.55097	4.54672	4.52363	4.52451	4.51113	4.50743	4.502	4.49997	4.49388	4.50074	4.51311	4.507	4.48706	4.46903	4.43222	4.39968	4.38036	4.27115	4.17464	4.15008	4.14148	4.13645	4.13762	4.18629	4.22862	4.26606	4.27973	4.28088	4.24548	4.20864	4.16241	4.11525	4.06753	4.0227	3.97685	3.93651	3.8965	3.86981	3.86652	3.85592	3.84976	3.84679	3.84722	3.84977	3.85395	3.86122	3.8699	3.88095	3.89306	3.907	3.92157	3.93755	3.9537	3.97065	3.98493	4.0018	4.01524	4.03035	4.04256	4.05899	4.07834	4.08576	4.08562	4.06921	4.0504	4.02964	4.013	3.99395	3.97908	3.96595	3.94357	3.93048	3.93495	3.93649	3.94649	3.92719	3.90834	3.88872	3.86848	3.84912	3.82984	3.81079	3.79435	3.77526	3.75559	3.73754	3.71877	3.70053	3.68386	3.66742	3.65949	3.64542	3.65075	3.66491	3.75919	3.84407	3.91417	3.93983	3.95428	4.00833	4.05209	4.05117	4.06785	4.07226	4.08223	4.09053	4.10173	4.10978	4.11797	4.12933	4.12634	4.12525	4.12004	4.10126	4.06744	4.04141	4.00512	3.97803	3.94606	3.94222	3.91766	3.88134	3.8545	3.90847	3.94036	3.95985	3.92857	3.88391	3.84006	3.78907	3.74834	3.70819	3.66999	3.63514	3.6013	3.56945	3.5442	3.52121	3.50122	3.4865	3.50465	3.46732	3.43669	3.45144	3.45926	3.49276	3.53082	3.57303	3.61829	3.66557	3.71477	3.76349	3.78627	3.78495	3.78666	3.78195	3.77582	3.76647	3.76338	3.74519	3.76029	3.78485	3.80462	3.87079	3.91872	3.95562	4.00602	4.04496	4.08595	4.11473	4.12404	4.09216	4.07092	4.04718	4.02047	3.99516	3.96865	3.95064	3.9249	3.89915	3.90584	3.94132	3.96221	3.99516	4.02312	4.05505	4.08389	4.07408	4.05029	4.02647	4.01616	4.01106	4.00634	4.00555	4.01041	4.05931	4.07445	4.0944	4.12233	4.12512	4.12112	4.11692	4.11566	4.1132	4.1144	4.11372	4.12115	4.12738	4.12284	4.11677	4.11795	4.11621	4.12038	4.12201	4.12968	4.17152	4.17799	4.17961	4.18514	4.18635	4.19263	4.18414	4.19286	4.20149	4.21292	4.22186	4.21353	4.19937	4.21633	4.23792	4.26533	4.29124	4.33947	4.35441	4.37023	4.38429	4.39924	4.412	4.42353	4.43369	4.44256	4.4501	4.45629	4.46116	4.46472	4.46698	4.4625	4.46247	4.46074	4.45728	4.4525	4.44489	4.44048	4.43165	4.42455	4.41395	4.40484	4.39298	4.38302	4.37064	4.36603	4.35066	4.33957	4.32644	4.31492	4.31559	4.29637	4.28038	4.26033	4.24426	4.22526	4.20745	4.18927	4.16583	4.14917	4.12165	4.05484	4.00067	3.92913	3.86886	3.85031	3.83743	3.89376	3.91618	3.95644	3.99241	4.06002	4.11162	4.15626	4.18312	4.19989	4.19717	4.20203	4.18972	4.17502	4.16448	4.15388	4.14056	4.11	4.10972	4.09507	4.05186	4.00334	3.96044	3.91861	3.88289	3.85258	3.82211	3.84681	3.86364	3.90833	3.95371	4.00411	4.05738	4.10979	4.13106	4.12104	4.10931	4.09688	4.08867	4.08061	4.07601	4.0698	4.04968	4.02714	4.01163	3.99597	3.98184	3.96742	3.96252	3.94656	3.9738	4.00602	3.98447	4.02301	4.03777	4.0429	4.04855	4.05278	4.06242	4.06321	4.07495	4.08441	4.09642	4.10429	4.11679	4.12699	4.12972	4.1239	4.11188	4.10035	4.09247	4.08978	4.06933	4.04838	4.02509	4.00091	3.98013	3.95829	3.93617	3.92028	3.9061	3.89871	3.86875	3.88302	3.89816	3.9316	3.97571	4.07228	4.14789	4.23187	4.29227	4.35012	4.40169	4.45956	4.50023	4.50768	4.46146	4.4071	4.37873	4.32994	4.29408	4.25553	4.21976	4.19197	4.16066	4.1626	4.14594	4.14708	4.13245	4.11353	4.09638	4.08561	4.08254	4.07967	4.08644	4.09026	4.11923	4.1912	4.21516	4.22118	4.22854	4.23611	4.24251	4.25203	4.25866	4.26618	4.27477	4.27716	4.30257	4.32355	4.32055	4.22119	4.14746	4.07902	4.04139	4.00672	3.98506	4.00397	4.07832	4.09227	4.10241	4.11876	4.12744	4.14657	4.11319	4.07503	4.04559	4.03394	4.02333	3.99243	3.93995	3.8926	3.85365	3.75059	3.61211	3.54729
0	20	5.5313	5.09419	4.92892	4.75245	4.69574	4.67762	4.66521	4.62897	4.58987	4.59513	4.58458	4.62602	4.66515	4.71452	4.76192	4.81042	4.85688	4.91255	4.95075	4.99187	5.05108	5.07967	5.074	5.06032	5.02511	4.98322	4.94816	4.89909	4.84851	4.79618	4.73986	4.68995	4.63288	4.59458	4.5509	4.50475	4.46277	4.42302	4.35776	4.34125	4.32468	4.30983	4.30568	4.3262	4.35075	4.37783	4.39908	4.44987	4.46803	4.44721	4.4374	4.43118	4.42389	4.41909	4.41009	4.41078	4.40887	4.41026	4.41035	4.41567	4.43083	4.45236	4.4854	4.50653	4.49654	4.48873	4.477	4.46287	4.4488	4.43379	4.41751	4.39257	4.37854	4.36697	4.36308	4.36068	4.35745	4.36079	4.36715	4.37543	4.43597	4.46215	4.50149	4.53708	4.56647	4.59492	4.61837	4.63958	4.63278	4.63732	4.63748	4.6385	4.64825	4.62658	4.57741	4.53514	4.50528	4.49923	4.50293	4.51826	4.53669	4.54452	4.58851	4.60474	4.61413	4.6064	4.55499	4.49982	4.47378	4.48356	4.48484	4.49977	4.52252	4.53655	4.51897	4.50114	4.4842	4.46415	4.44457	4.42961	4.42738	4.42737	4.4517	4.4941	4.5308	4.56706	4.58252	4.60604	4.62642	4.64509	4.63635	4.63727	4.39473	4.33363	4.25946	4.27034	4.28544	4.3085	4.34388	4.3631	4.37998	4.39561	4.41134	4.4205	4.43173	4.43449	4.4424	4.44437	4.43604	4.41575	4.40092	4.37011	4.34424	4.31705	4.30109	4.33989	4.36706	4.39175	4.4087	4.43484	4.45986	4.48393	4.51017	4.51845	4.55024	4.57378	4.58913	4.5917	4.60078	4.60759	4.61542	4.61685	4.62279	4.62153	4.62292	4.61688	4.5706	4.52915	4.48616	4.43761	4.37933	4.32381	4.26156	4.22187	4.18818	4.15271	4.1909	4.21852	4.23782	4.26655	4.34924	4.39727	4.37735	4.37674	4.35026	4.3328	4.31454	4.30242	4.30248	4.29676	4.32975	4.36329	4.42098	4.48589	4.50075	4.5616	4.62323	4.69997	4.76493	4.79974	4.81631	4.80844	4.80085	4.78045	4.76101	4.72288	4.6891	4.65996	4.63091	4.60734	4.57284	4.56908	4.58616	4.59066	4.59801	4.61297	4.63049	4.64926	4.68177	4.69274	4.69155	4.6744	4.6552	4.63054	4.60416	4.55907	4.51245	4.50476	4.49827	4.5001	4.50169	4.54243	4.5668	4.60311	4.62667	4.65058	4.66944	4.68167	4.6966	4.7051	4.68641	4.6851	4.67362	4.66654	4.65804	4.62387	4.57407	4.53599	4.49558	4.46195	4.45193	4.47191	4.5261	4.57237	4.63531	4.71887	4.79293	4.83254	4.85067	4.85103	4.85494	4.79878	4.73144	4.65472	4.6041	4.56173	4.52347	4.49133	4.46194	4.43612	4.44906	4.43847	4.43173	4.42046	4.41773	4.41323	4.41942	4.43149	4.4413	4.4574	4.47081	4.48905	4.50494	4.51643	4.45198	4.38563	4.32733	4.20496	4.22359	4.24552	4.23653	4.18596	4.14311	4.11472	4.07559	4.04657	4.05161	4.00456	3.95619	3.99864	4.02351	4.07889	4.14162	4.21029	4.26807	4.21959	4.17297	4.12561	4.08581	4.04411	4.01304	3.97971	3.95853	3.93648	3.91236	3.89233	3.88777	3.89882	3.95982	4.00672	4.03194	4.05132	4.10516	4.1579	4.21913	4.28224	4.29365	4.30042	4.28864	4.28701	4.27962	4.27871	4.27283	4.27357	4.27371	4.27938	4.28711	4.2952	4.30524	4.30673	4.30659	4.31262	4.31983	4.29208	4.29851	4.30764	4.34007	4.36772	4.3834	4.3988	4.41379	4.43082	4.4391	4.45436	4.47198	4.49942	4.52248	4.54188	4.56533	4.58489	4.60773	4.62629	4.64754	4.6656	4.68336	4.70055	4.71514	4.72731	4.73836	4.74607	4.75181	4.75436	4.75878	4.75523	4.75585	4.75766	4.75741	4.7581	4.76731	4.75336	4.74178	4.72791	4.71613	4.7025	4.69116	4.6805	4.67108	4.6638	4.65691	4.65601	4.63562	4.6149	4.59976	4.58008	4.56032	4.52392	4.48746	4.47668	4.48347	4.49203	4.50724	4.52493	4.54898	4.60208	4.64818	4.69065	4.75069	4.77776	4.79604	4.81541	4.83395	4.85258	4.86977	4.88724	4.9034	4.92357	4.94835	4.95358	4.95855	4.93745	4.93071	4.92553	4.91281	4.90465	4.88913	4.88916	4.9066	4.92953	4.95885	4.98908	5.08664	5.14383	5.21155	5.27803	5.34951	5.42087	5.49567	5.57064	5.65018	5.72973	5.80896	5.8817	5.96039	6.04346	6.12795	6.21443	6.28113	6.31036	6.35795	6.39816	6.44595	6.51641	6.63994	6.77128	6.94736	7.1681	7.4501	7.76188	8.03673	8.32018	8.61654	8.90598	9.16645	9.45292	9.80564	10.2105	10.6675	11.1922	11.7917	12.4795	13.3283	14.3097	15.694	17.0765	18.6295	20.4001	22.4627	25.1479	27.9917	31.5539	35.728	40.5411	45.5218	61.7501	71.1018	86.7807	106.142	132.834	167.706	199.434	221.04	222.51	203.604	171.407	137.071	106.727	88.2677	74.8409	59.5708	50.3483	41.2664	35.811	32.29	28.3041	24.9402	21.805	18.5583	15.782	15.5035	14.0855	13.5086	13.4236	12.9207	12.1957	11.421	10.8647	10.3347	9.86149	9.45592	9.09489	8.7755	8.4969	8.25001	8.03665	7.8491	7.67421	7.51025	7.2949	7.07074	6.85596	6.65777	6.46577	6.29923	6.14636	6.01909	5.89502	5.74058	5.67041	5.61436	5.56511	5.51609	5.44312	5.37306	5.23338	5.14609	5.11865	5.10915	5.13144	5.16873	5.21241	5.23338	5.24214	5.24097	5.14983	5.05603	4.96181	4.87268	4.78502	4.72283	4.66125	4.61287	4.56777	4.53016	4.49437	4.46192	4.43107	4.40695	4.38234	4.36683	4.33924	4.33725	4.33952	4.34215	4.35817	4.37101	4.39291	4.44444	4.49285	4.53384	4.60389	4.65431	4.67701	4.69809	4.71767	4.65802	4.60051	4.53825	4.48054	4.42182	4.37079	4.32687	4.30058	4.29481	4.28604	4.25464	4.23543	4.27747	4.33312	4.39204	4.44546	4.49677	4.5341	4.56057	4.58212	4.6053	4.62358	4.61781	4.56734	4.48246	4.39962	4.32208	4.24777	4.17906	4.10541	4.06601	4.05352	4.06067	4.05059	4.07298	4.08812	4.10553	4.13084	4.15832	4.18673	4.21521	4.2547	4.28648	4.3212	4.33024	4.34137	4.33861	4.28357	4.24723	4.21638	4.12648	4.11928	4.11166	4.10498	4.08133	4.03463	3.99298	3.95794	3.92727	3.94257	3.9703	3.99895	4.02413	4.06806	4.0938	4.15313	4.07923	4.04798	4.04134	4.05295	4.01706	3.77896	3.67484	3.65531	3.66366	3.68898	3.73569	3.81175	3.90166	3.98961	4.08753	4.18781	4.22047	4.22332	4.20097	4.17632	4.13719	4.09583	4.03432	4.01016	3.99442	3.98148	3.97247	3.96277	3.9573	3.94972	3.94722	3.94496	3.9456	3.925	3.90651	3.89408	3.88311	3.87505	3.86958	3.86446	3.86238	3.86181	3.86307	3.86698	3.88403	3.88532	3.89016	3.88972	3.89165	3.89691	3.90479	3.89928	3.91807	3.93615	3.957	3.97762	3.99941	4.02253	4.04554	4.06747	4.08873	4.0616	4.05865	4.05398	4.02729	4.01803	4.05874	4.07066	4.05043	4.04504	4.0343	4.0958	4.09047	4.07604	4.07642	4.00906	3.97355	3.98444	3.99842	4.03125	4.09069	4.15325	4.21643	4.21194	4.19787	4.17631	4.15627	4.13473	4.11396	4.09236	4.07136	4.04942	4.02568	3.98378	3.95736	3.93294	3.91834	3.85825	3.88416	3.95455	4.00418	4.03903	4.07266	4.10071	4.1363	4.16612	4.19949	4.23048	4.26363	4.23969	4.17738	4.16215	4.16228	4.16791	4.1869	4.23009	4.28252	4.33971	4.39024	4.39135	4.39608	4.4006	4.39761	4.3932	4.38605	4.37868	4.36695	4.35839	4.36535	4.31473	4.25821	4.21237	4.16125	4.14228	4.0844	4.06125	4.03556	4.02895	4.02198	4.02114	4.01777	4.03097	4.06941	4.09459	4.1208	4.14456	4.16909	4.19207	4.2192	4.21688	4.2046	4.19884	4.18075	4.16649	4.11976	4.11726	4.105	4.0958	4.08383	4.12177	4.10056	4.08493	4.07565	4.06312	4.05597	4.03595	4.06076	4.08743	4.11489	4.12387	4.13039	4.11632	4.11016	4.10912	4.09722	4.08962	4.07699	4.06892	4.06895	4.05916	4.05291	4.04475	4.04302	4.03219	4.0184	4.01069	3.99888	3.98981	3.98018	3.9723	3.94955	3.94203	3.93904	3.93644	3.94009	3.94323	3.95353	3.96314	3.97908	3.99467	4.01477	4.02989	4.03861	4.05116	4.06723	4.09087	3.90707	4.0348	4.07815	4.09505	4.08328	4.04699	4.00382	3.9876	3.96414	4.00477	3.96807	3.92995	3.89623	3.85928	3.85683	3.92904	4.00483	4.08495	4.16606	4.21816	4.2265	4.22822	4.19843	4.1384	4.0822	3.97615	3.9417	3.91376	3.89224	3.86997	3.87869	3.89781	3.91366	3.95013	3.99583	4.03937	4.06184	4.10049	4.16363	4.29088	4.34938	4.40614	4.45932	4.50278	4.54522	4.53214	4.5704	4.50548	4.42816	4.34215	4.2472	4.16233	4.06831	3.98868	3.90862	3.84522	3.81321	3.78687	3.76673	3.78223	3.80882	3.84968	3.92791	3.98302	4.03705	4.09679	4.15415	4.18119	4.16866	4.15222	4.15806	4.13317	4.19887	4.22365	4.25415	4.28104	4.31137	4.33435	4.29666	4.25254	4.21322	4.17373	4.1328	4.07188	4.03998	4.0153	3.99491	3.97565	3.99109	4.0088	4.03928	4.00174	3.97249	3.95627	3.88807	3.81026	3.81009	3.82074	3.84829	3.88776	3.93821	3.99907	4.06611	4.1433	4.19108	4.24419	4.25515	4.25863	4.25847	4.25698	4.24167	4.19647	4.15181	4.11115	4.07658	4.00736	3.99939	3.99244	3.98517	3.98633	4.00034	4.01914	4.03952	4.10009	4.1331	4.15133	4.19163	4.18072	4.14154	4.10073	3.99417	3.90777	3.82137	3.7605	3.68226	3.61608	3.61319	3.60609	3.68094	3.73823	3.80946	3.89328	3.90496	3.91497	3.91837	3.89817	3.89096	3.92565	3.95399	3.98887	4.02367	4.05148	4.07458	4.03648	4.00267	3.96565	4.14171	4.21538
20	-20	6.03806	6.12638	6.10071	6.07518	6.02949	6.00855	5.92547	5.84046	5.74768	5.65707	5.63787	5.61809	5.60748	5.61325	5.62405	5.63265	5.64731	5.66396	5.6867	5.69826	5.71749	5.72417	5.73231	5.73087	5.72009	5.65491	5.6099	5.56033	5.51608	5.46865	5.42279	5.38369	5.35157	5.32147	5.30148	5.29156	5.38802	5.65275	5.69019	5.70372	5.67855	5.73271	5.75507	5.69532	5.68487	5.68359	5.7062	5.6583	5.46054	5.3626	5.18815	5.0811	4.97682	4.94529	4.95089	4.9782	5.01337	5.07148	5.13203	5.19654	5.26503	5.32148	5.38366	5.43461	5.48862	5.53129	5.57189	5.57192	5.57071	5.56736	5.5591	5.55656	5.54701	5.54143	5.53665	5.48083	5.42418	5.35908	5.30178	5.21938	5.14176	5.07762	5.06399	5.03926	4.99519	5.03853	5.14954	5.218	5.25092	5.27353	5.26549	5.27879	5.31397	5.38693	5.45289	5.53367	5.60273	5.67162	5.68173	5.63344	5.59499	5.55275	5.46695	5.34206	5.21657	5.09519	4.98167	4.87472	4.85595	4.82952	4.82854	4.85492	4.90707	4.98163	5.08338	5.17217	5.20222	5.25877	5.40031	5.46746	5.48048	5.51269	5.5752	5.65502	5.65996	5.62397	5.59714	5.6008	5.62659	5.52959	5.36985	5.27484	5.29944	5.32061	5.29024	5.25793	5.21978	5.21591	5.22092	5.2353	5.24922	5.26715	5.28542	5.30199	5.29903	5.28944	5.27733	5.26421	5.24177	5.20443	5.29425	5.35444	5.37094	5.41815	5.4456	5.43877	5.39454	5.32785	5.17467	5.16054	5.16585	5.17993	5.21292	5.20243	5.19458	5.18564	5.1916	5.27541	5.32778	5.41768	5.47233	5.4477	5.41888	5.37901	5.28742	5.27529	5.26241	5.26277	5.25969	5.21054	5.14448	5.08825	5.30012	5.34966	5.37023	5.3717	5.48292	5.53319	5.49053	5.43891	5.40726	5.36256	5.33363	5.26934	5.21367	5.23428	5.25466	5.32943	5.39217	5.4605	5.53669	5.59831	5.6103	5.62513	5.60746	5.62351	5.65077	5.69855	5.72863	5.73641	5.74429	5.74459	5.72305	5.69421	5.66468	5.63665	5.59853	5.56739	5.52937	5.51904	5.4996	5.49835	5.48773	5.51937	5.53623	5.56053	5.57682	5.60828	5.64337	5.68576	5.71136	5.67349	5.64237	5.60583	5.57464	5.50398	5.47344	5.40115	5.40377	5.40365	5.44024	5.52345	5.57569	5.61879	5.55068	5.53036	5.61267	5.67961	5.70947	5.6789	5.62213	5.56428	5.49811	5.41203	5.29631	5.17751	5.06024	4.94764	4.83964	4.73755	4.64796	4.56823	4.59621	4.65136	4.71303	4.7881	4.85644	4.96252	5.02995	5.02807	5.02367	5.02574	5.03232	5.04911	5.07904	5.09582	5.14274	5.15234	5.15639	5.16315	5.14803	5.101	5.07504	5.04241	5.01551	4.9936	4.97967	4.96921	4.96341	4.9796	5.02479	5.02994	5.03084	5.01733	5.004	4.99253	4.9801	4.99091	5.00307	4.97808	4.94185	4.89059	4.86878	4.83903	4.81749	4.73493	4.63087	4.53544	4.43574	4.3962	4.36779	4.32754	4.34864	4.39534	4.44215	4.48893	4.54764	4.59996	4.60021	4.60949	4.61692	4.62443	4.63167	4.6295	4.61598	4.64746	4.68282	4.73096	4.78367	4.82791	4.8756	4.93925	4.97211	5.00464	5.0369	5.06278	5.0909	5.07944	5.09548	5.07652	5.06104	5.04598	5.04262	5.04259	5.03633	5.01477	4.96925	4.91055	4.90584	4.90208	4.90633	4.99067	5.03348	5.07262	5.11434	5.15005	5.18403	5.18974	5.20086	5.21223	5.22433	5.23759	5.24927	5.25582	5.23414	5.21953	5.20595	5.19041	5.16937	5.15515	5.13705	5.12113	5.1047	5.08963	5.09119	5.09393	5.09028	5.07979	5.1182	5.12157	5.16377	5.2048	5.28402	5.31271	5.34028	5.36892	5.39376	5.41962	5.4395	5.46016	5.47373	5.45725	5.45802	5.44351	5.42846	5.4101	5.39185	5.35821	5.32801	5.30769	5.29649	5.29771	5.45392	5.5915	5.77877	5.84042	5.87908	5.85829	5.83986	5.83262	5.83003	5.83653	5.85223	5.88108	5.93093	5.98142	6.03549	6.07057	6.17265	6.26294	6.36055	6.47206	6.58104	6.65864	6.67624	6.68833	6.70392	6.71798	6.70093	6.6849	6.62173	6.66491	6.7224	6.8827	7.02171	7.13218	7.18475	7.21315	7.25061	7.27531	7.36188	7.45285	7.57818	7.7091	7.85759	8.06746	8.28891	8.49264	8.70847	8.92405	9.15553	9.38274	9.63023	9.86279	9.99012	10.1962	10.4363	10.6705	10.9116	11.1657	11.4042	11.6713	12.0095	12.4859	13.1101	13.6659	14.1822	14.7494	15.4068	16.1407	17.0021	17.837	18.742	19.7085	20.8538	22.0793	23.2546	24.5387	25.9939	27.945	30.0727	32.5112	35.1607	38.6088	42.4652	46.7913	51.8892	59.0516	67.0464	76.3645	86.0903	102.04	118.754	140.253	169.904	207.207	262.596	333.949	398.399	473.504	546.916	588.362	568.069	511.557	428.289	359.391	280.38	227.367	185.859	154.04	128.369	107.872	91.2455	78.5323	68.0925	59.4572	50.1579	45.3944	41.0127	38.3695	35.8235	32.9551	30.0229	28.0962	26.2395	24.0409	22.3138	20.882	19.5427	18.537	17.532	16.6968	16.0201	15.442	14.8083	14.2361	13.733	13.3191	12.9492	12.6494	12.415	12.1481	11.784	11.3882	11.0381	10.7321	10.4388	10.2246	10.0356	9.86662	9.68949	9.4992	9.29812	9.09506	8.91963	8.76055	8.60519	8.45832	8.31004	8.178	8.03865	7.90224	7.75259	7.60903	7.47459	7.34359	7.22044	7.10344	6.99283	6.88931	6.78766	6.70669	6.67484	6.68723	6.70469	6.71738	6.73096	6.75524	6.76911	6.75572	6.73097	6.67784	6.56377	6.44635	6.2783	6.10036	5.92085	5.77914	5.66006	5.63557	5.63672	5.61778	5.59832	5.62781	5.71668	5.75224	5.76944	5.78697	5.80477	5.80925	5.74096	5.66366	5.58287	5.50056	5.38858	5.19456	5.10553	5.0252	4.96049	4.9463	4.92472	4.91599	4.90245	4.91006	4.91387	4.91853	4.92183	4.93499	4.9392	4.95607	4.95923	4.97059	4.958	4.95853	4.93799	4.88544	4.87385	4.8583	4.8485	4.8381	4.81089	4.77492	4.73697	4.70998	4.70028	4.68658	4.67324	4.67455	4.67673	4.74655	4.73445	4.693	4.65841	4.60882	4.56054	4.51188	4.45378	4.38492	4.33346	4.30761	4.3035	4.28598	4.32549	4.30405	4.27021	4.19895	4.1241	4.05827	4.10612	4.15858	4.2262	4.33167	4.42723	4.51662	4.49893	4.42192	4.33679	4.26318	4.21853	4.19843	4.2893	4.28943	4.32434	4.35268	4.36191	4.37551	4.40902	4.4472	4.43628	4.41795	4.39737	4.39627	4.38323	4.38064	4.39718	4.40537	4.35382	4.30272	4.24912	4.1914	4.1377	4.09811	4.04981	3.99949	3.98275	3.99053	4.01318	4.04261	4.07237	4.10578	4.14002	4.16931	4.19358	4.19483	4.20398	4.2004	4.21577	4.23076	4.25131	4.27235	4.29533	4.3203	4.34362	4.369	4.39057	4.41406	4.43192	4.45076	4.46335	4.47599	4.48512	4.48663	4.48953	4.50645	4.48573	4.44269	4.34736	4.26011	4.18717	4.10754	4.05733	4.01447	4.02636	3.98736	3.93336	3.90261	3.87493	3.89856	4.03729	4.15022	4.26233	4.35501	4.40842	4.43585	4.40176	4.33807	4.28411	4.2446	4.21504	4.20666	4.25147	4.48304	4.55175	4.61764	4.64618	4.64808	4.5562	4.53933	4.74583	4.79573	4.79932	4.76683	4.74389	4.73304	4.73716	4.73857	4.74187	4.73825	4.72859	4.7046	4.66939	4.61221	4.50449	4.36657	4.29084	4.25047	4.26469	4.32978	4.36614	4.41151	4.45979	4.51602	4.59464	4.65424	4.64335	4.60742	4.57144	4.6234	4.62728	4.64031	4.68669	4.68024	4.66807	4.63563	4.57523	4.59029	4.6266	4.62797	4.6005	4.59866	4.61856	4.68474	4.75743	4.84335	4.90424	4.97748	4.97251	4.98529	5.01456	5.0563	5.11335	5.15516	5.17695	5.17362	5.18188	5.18505	5.18604	5.18689	5.18058	5.11512	5.03408	4.96639	4.93961	4.96833	4.98821	5.00212	5.0209	5.04232	5.0713	5.12734	5.14404	5.17518	5.14118	5.10318	5.06321	5.0246	4.97743	4.90299	4.84813	4.78578	4.73671	4.70059	4.67102	4.64003	4.63912	4.66239	4.68709	4.72548	4.75122	4.78891	4.83421	4.86575	4.88878	4.89233	4.89519	4.90105	4.90566	4.88892	4.8601	4.80853	4.75932	4.69256	4.65475	4.62191	4.59119	4.561	4.56053	4.54925	4.53512	4.4946	4.45919	4.40888	4.40514	4.40511	4.412	4.42705	4.47829	4.53731	4.6254	4.65589	4.68982	4.7206	4.75265	4.78133	4.77068	4.79226	4.79255	4.83327	4.84531	4.82103	4.76264	4.70404	4.64104	4.54046	4.46769	4.40069	4.33431	4.27156	4.23446	4.18456	4.15354	4.16446	4.18596	4.2149	4.26348	4.30762	4.35468	4.40123	4.45196	4.49946	4.55244	4.60079	4.65743	4.70447	4.73753	4.76434	4.79128	4.80633	4.81326	4.81164	4.82386	4.83432	4.83556	4.83119	4.81204	4.79485	4.75411	4.71421	4.66934	4.62718	4.57609	4.53392	4.48859	4.43406	4.41047	4.39212	4.38086	4.36813	4.38038	4.38418	4.42002	4.44808	4.47047	4.50221	4.54811	4.59553	4.635	4.67146	4.7096	4.74838	4.78978	4.82381	4.83837	4.84086	4.84647	4.84993	4.85421	4.85652	4.85802	4.84887	4.84429	4.8269	4.81552	4.78863	4.75518	4.72527	4.69026	4.65838	4.62363	4.5912	4.55878	4.52728	4.49014	4.46126	4.44924	4.43103	4.42086	4.42091	4.43288	4.49311	4.60479	4.65975	4.76831	4.82134	4.86114	4.91609	4.84137	4.73647	4.67769	4.64004	4.61756	4.62465	4.63658	4.65751	4.7353	4.72545	4.687	4.58896	4.44183	4.31081	4.28523	4.25728	4.27934	4.34695	4.46247	4.58168	4.70184	4.82277	4.85649	4.809	4.75881	4.71498	4.67729	4.64052	4.62086	4.59812	4.60451	4.61863	4.65148	4.66174	4.56856	4.42827	4.17725	3.91058
20	0	4.65405	4.61055	4.52033	4.5034	4.51747	4.52958	4.54734	4.5649	4.5853	4.56447	4.54047	4.53736	4.51007	4.52038	4.52656	4.54064	4.54819	4.56528	4.58372	4.60004	4.61626	4.63028	4.65056	4.65797	4.69509	4.6991	4.69961	4.70982	4.69912	4.68703	4.65941	4.63342	4.60611	4.57961	4.55341	4.52367	4.49671	4.47032	4.44431	4.42045	4.39629	4.37998	4.35838	4.33999	4.32174	4.30648	4.29082	4.27896	4.2738	4.2629	4.2654	4.26879	4.27662	4.28711	4.29609	4.30104	4.30431	4.31445	4.32277	4.33763	4.35131	4.36996	4.38985	4.4093	4.43209	4.45389	4.47835	4.50146	4.52309	4.51405	4.49729	4.48393	4.46328	4.45034	4.44635	4.45372	4.48621	4.5138	4.54773	4.5442	4.56971	4.59022	4.61125	4.63778	4.65888	4.66578	4.67699	4.68928	4.70596	4.71138	4.70969	4.69325	4.67563	4.62866	4.58319	4.5383	4.49637	4.45423	4.43012	4.44994	4.45708	4.47239	4.48786	4.50904	4.55844	4.54118	4.54481	4.5489	4.55515	4.56092	4.55024	4.53374	4.48298	4.47285	4.46635	4.46107	4.46241	4.46347	4.44913	4.40256	4.37051	4.3473	4.32615	4.30598	4.31261	4.32334	4.33491	4.34732	4.36185	4.37535	4.39154	4.40592	4.42411	4.43907	4.45045	4.46128	4.47666	4.49186	4.50648	4.52038	4.53354	4.54512	4.54342	4.54905	4.51866	4.48466	4.44962	4.41713	4.3857	4.34148	4.33172	4.34601	4.35544	4.37286	4.3795	4.36435	4.32848	4.26908	4.20632	4.1425	4.07682	4.01353	4.08758	4.13717	4.20934	4.28274	4.31342	4.42953	4.49622	4.53614	4.54328	4.52292	4.47157	4.45504	4.43044	4.41682	4.40142	4.4296	4.42617	4.37549	4.30821	4.18577	4.1577	4.12195	4.1486	4.31258	4.35548	4.47194	4.46938	4.46901	4.4685	4.52542	4.51504	4.48668	4.32497	4.26795	4.20156	4.19702	4.2349	4.37809	4.51037	4.59236	4.66778	4.65911	4.43715	4.65087	4.64734	4.61	4.64005	4.67652	4.71825	4.77795	4.80802	4.8263	4.84163	4.86151	4.83783	4.65428	4.52986	4.45192	4.42965	4.4551	4.52464	4.62468	4.71233	4.80881	4.79262	4.7577	4.75416	4.74817	4.74587	4.76334	4.7695	4.7715	4.77867	4.7855	4.78095	4.72215	4.66034	4.57284	4.49953	4.43994	4.39564	4.37436	4.33415	4.28097	4.20275	4.20712	4.23642	4.27546	4.32221	4.37524	4.43611	4.5101	4.60895	4.72292	4.78318	4.80696	4.76452	4.72648	4.68864	4.66911	4.63404	4.601	4.5628	4.52454	4.48134	4.43589	4.39297	4.28269	4.19049	4.11371	4.05155	4.0087	3.98121	3.9685	3.96475	3.92781	3.90374	3.89532	3.90006	3.93131	3.95386	3.98311	4.0263	4.08276	4.09361	4.12243	4.19589	4.20419	4.23741	4.2675	4.29818	4.32733	4.35973	4.39569	4.41625	4.39687	4.37755	4.34309	4.29366	4.25299	4.21049	4.17089	4.13223	4.09448	4.05991	4.07116	4.08167	4.08493	4.0805	4.03757	3.98764	3.94948	3.96595	4.01177	4.0279	4.03207	4.01094	3.88331	3.86282	3.80809	3.98108	4.13654	4.34977	4.42068	4.51355	4.466	4.39096	4.30967	4.17648	4.05696	4.08095	4.09221	4.08962	4.05972	4.08377	4.10956	4.13581	4.1444	4.15575	4.17039	4.18571	4.16418	4.16031	4.16078	4.14886	4.14078	4.10638	4.13626	4.0848	3.66274	4.10641	4.20305	4.18054	4.16601	4.15587	4.14115	4.13108	4.11706	4.10919	4.02653	3.95055	3.90143	3.86347	3.82997	3.83485	3.86821	3.86327	3.86594	3.87232	3.88775	3.90197	3.92483	3.94528	3.97378	3.99878	4.0314	4.04944	4.08019	4.10867	4.13502	4.11486	4.10425	4.09533	4.08792	4.1229	4.14447	4.12475	4.13468	4.1486	4.16822	4.2454	4.30072	4.36023	4.41845	4.47915	4.53446	4.59709	4.6434	4.68813	4.731	4.76826	4.78781	4.79109	4.78234	4.75735	4.71951	4.66954	4.64105	4.59605	4.55367	4.54111	4.53352	4.56872	4.54631	4.49986	4.28745	4.31407	4.37124	4.56715	4.80557	4.83912	4.87487	4.88941	4.91814	4.94074	4.95617	4.98093	4.9588	4.98878	5.0005	5.01156	5.02261	5.03555	5.04699	5.07507	5.07636	5.07459	5.00895	4.93681	4.86928	4.8075	4.75198	4.69806	4.66932	4.75543	4.83199	4.89886	5.00272	5.22106	5.42805	5.623	5.72526	5.8326	5.97685	6.09196	6.22049	6.3349	6.46061	6.5986	6.74753	6.90881	7.05307	7.20483	7.33132	7.47016	7.66599	7.96281	8.24808	8.53735	8.78552	9.02754	9.31902	9.71833	10.1727	10.5989	11.0762	11.6134	12.2032	13.0017	13.9369	15.2314	16.817	18.2906	20.1007	22.2799	24.3605	26.7908	29.8108	33.3764	38.6868	46.6593	59.2959	67.2739	81.8092	101.719	130.252	156.939	192.149	224.05	228.998	227.538	203.776	173.209	138.229	111.725	87.2842	71.3021	57.7755	49.1597	42.0206	32.8362	32.0041	27.8063	24.9321	22.0622	19.9921	18.1527	16.8524	15.6881	14.568	13.5611	12.6771	11.8865	11.1851	10.5446	9.98028	9.49404	9.03447	8.68229	8.39349	8.19606	8.02025	7.86943	7.73027	7.59325	7.4673	7.34549	7.22621	7.10858	6.99228	6.83615	6.62649	6.49635	6.37903	6.27042	6.16826	6.07286	5.97158	5.87519	5.78487	5.69956	5.61668	5.54001	5.46202	5.39397	5.32182	5.24883	5.1896	5.12911	5.07548	5.03077	4.97124	4.95301	4.93713	4.93002	4.92465	4.91993	4.91141	4.90374	4.87852	4.85436	4.83466	4.81339	4.79664	4.77704	4.76138	4.74235	4.72657	4.70729	4.69033	4.67027	4.65125	4.63006	4.60862	4.58687	4.5644	4.54265	4.51977	4.49864	4.47615	4.45278	4.41302	4.37746	4.33932	4.30576	4.2703	4.23972	4.20794	4.18123	4.15418	4.14383	4.1269	4.11205	4.09937	4.08924	4.08004	4.0671	4.03127	4.00703	3.98396	3.95419	3.94604	3.93945	3.93893	3.94015	3.9443	3.95871	3.98352	4.00189	4.04546	4.07448	4.10543	4.13046	4.16033	4.16771	4.13106	4.10217	4.08148	4.05143	4.02472	3.98435	3.94638	3.87582	3.78847	3.68456	3.61801	3.68167	3.8165	4.01604	4.14634	4.1778	4.20534	4.20791	4.15505	4.10112	4.13855	4.15244	4.15787	4.15554	4.1451	4.1286	4.10592	4.08675	4.09893	4.14166	4.20076	4.18926	4.15987	4.12589	4.01941	3.88143	3.80795	3.73018	3.64676	3.5854	3.53782	3.45507	3.42781	3.44493	3.50102	3.58895	3.67121	3.67279	3.65264	3.62774	3.62206	3.57166	3.60484	3.63588	3.67814	3.73983	3.79669	3.84532	3.88947	3.93156	3.96927	3.98313	3.99261	4.00341	3.99215	3.98623	3.98325	3.97912	3.96459	3.95407	3.96592	4.08041	4.08155	4.08006	4.0752	4.0699	4.04387	4.01031	3.98195	3.96246	3.9494	3.9448	3.94303	3.93049	3.909	3.88996	3.86152	3.8612	3.84949	3.82073	3.77511	3.73581	3.67122	3.61588	3.56969	3.52662	3.49227	3.44024	3.39965	3.29158	3.38434	3.58015	3.69208	3.8044	3.79536	3.78205	3.77248	3.76179	3.75474	3.7462	3.7453	3.74576	3.73219	3.75225	3.71039	3.66986	3.67025	3.65461	3.65422	3.65908	3.66713	3.6743	3.68707	3.69954	3.71471	3.7303	3.74603	3.76292	3.77788	3.75999	3.74526	3.7262	3.70641	3.68649	3.66806	3.64274	3.61588	3.56006	3.54015	3.52763	3.50886	3.52377	3.57883	3.65255	3.72511	3.77165	3.79436	3.81746	3.84105	3.86471	3.88799	3.90576	3.90606	3.90616	3.9072	3.90795	3.90905	3.9125	3.90599	3.9092	3.91765	3.92276	3.92532	3.93463	3.94929	3.96083	3.97763	3.99176	4.01083	4.02773	4.04873	4.06809	4.09054	4.1119	4.13513	4.14183	4.14112	4.13815	4.09804	4.05432	4.00652	3.96682	3.92444	3.88886	3.86082	3.84346	3.83503	3.91733	3.98138	4.05206	4.06233	4.04812	4.05168	4.07022	4.12689	4.12097	4.08777	4.03783	4.01574	3.98459	3.96057	3.93659	3.91265	3.82352	3.82117	3.82849	3.93301	4.01516	4.03283	4.05168	4.07254	4.09453	4.08396	4.05819	4.0388	4.00007	3.92905	3.94332	3.96995	3.93621	3.91133	3.89506	3.86741	3.85703	3.85759	3.85762	3.87967	3.90178	3.9523	3.9885	4.03017	4.07019	4.13013	4.15164	4.12617	4.1111	4.08994	4.07061	4.0461	3.97221	3.95445	3.92416	3.8534	3.7854	3.71473	3.6697	3.6377	3.63128	3.71276	3.78506	3.86743	3.95404	3.99949	4.04166	4.07475	4.09667	4.08504	4.08251	4.06696	4.07484	4.07603	4.07197	4.07374	4.0817	4.07897	4.05287	4.06407	4.07271	4.01953	3.95267	3.87694	3.84933	3.86317	3.91061	3.87944	3.86546	3.87964	3.89519	3.91195	3.9553	3.99115	4.03012	4.05602	4.02077	4.00543	3.94494	3.85267	3.76117	3.68408	3.62199	3.57249	3.62334	3.75776	3.89757	4.02294	4.03938	4.03998	4.05629	4.08302	4.109	4.15965	4.18412	4.23467	4.27787	4.25608	4.23098	4.2093	4.18526	4.16964	4.14658	4.16886	4.16621	4.14679	4.12255	4.10056	4.07278	4.03077	4.02355	3.99718	3.9909	3.97479	3.96207	3.95302	3.95034	3.95022	3.95683	3.96632	3.97954	3.9965	4.01459	4.03759	4.06007	4.08775	4.11486	4.14597	4.16373	4.15883	4.14498	4.14481	4.18286	4.22868	4.26483	4.31333	4.35872	4.39738	4.43435	4.46089	4.46552	4.43275	4.40362	4.36661	4.33337	4.2934	4.25953	4.22171	4.19328	4.15685	4.14183	4.12516	4.11535	4.12142	4.13584	4.15118	4.12106	4.10057	4.08196	4.06509	4.05276	4.04153	4.03384	4.02873	4.01996	4.01654	4.01278	4.0152	4.01823	4.02293	4.03805	4.06133	4.07554	4.09165	4.10808	4.12819	4.14853	4.16031	4.18311	4.19527	4.20354	4.21178	4.22421	4.23441	4.25008	4.27204	4.29804	4.33768	4.52684	4.57316
20	20	3.94224	4.03623	4.11179	4.17164	4.20302	4.23009	4.25617	4.27883	4.29972	4.30316	4.27717	4.27204	4.28067	4.30046	4.30762	4.31223	4.33991	4.37852	4.39954	4.40656	4.43728	4.47511	4.51475	4.54563	4.56205	4.57836	4.58491	4.57979	4.56868	4.54137	4.45918	4.42374	4.43284	4.40649	4.41494	4.48749	4.54851	4.55095	4.54583	4.53828	4.54095	4.52655	4.50363	4.48341	4.45649	4.43003	4.40017	4.36961	4.33875	4.30616	4.27274	4.23369	4.2104	4.183	4.12075	4.1287	4.13837	4.15417	4.2418	4.2942	4.35267	4.41184	4.46965	4.52611	4.5763	4.65705	4.70813	4.71661	4.65156	4.53565	4.38958	4.29784	4.26911	4.32085	4.43315	4.5661	4.64604	4.66409	4.63611	4.6088	4.56605	4.41473	4.35345	4.33153	4.32883	4.39725	4.21801	4.19459	4.18376	4.17251	4.17413	4.18274	4.19011	4.20208	4.20765	4.22231	4.25518	4.29479	4.34023	4.36203	4.39444	4.37548	4.35154	4.36881	4.35143	4.34935	4.33555	4.28661	4.24607	4.20523	4.1623	4.12815	4.08906	4.05713	4.03473	4.007	4.02847	4.06331	4.06305	4.06805	4.07832	4.09378	4.11429	4.18446	4.21549	4.25506	4.28966	4.33079	4.36711	4.40774	4.44412	4.41134	4.3493	4.28916	4.23559	4.11712	4.08487	4.0552	4.03337	4.04284	4.07291	4.13453	4.18636	4.2502	4.26972	4.27081	4.26615	4.27343	4.24432	4.25711	4.28581	4.3126	4.29027	4.31602	4.36432	4.42119	4.43421	4.44972	4.48003	4.46253	4.44498	4.42745	4.40998	4.39258	4.37521	4.35806	4.22944	4.12283	4.10472	4.06625	4.05397	4.04535	4.05605	4.06713	4.0935	4.13004	4.1873	4.20254	4.16566	4.17034	4.17074	4.16101	4.1685	4.16976	4.18273	4.19089	4.14466	4.17716	4.2386	4.31073	4.39296	4.42552	4.45704	4.48993	4.5223	4.55503	4.58715	4.60385	4.61646	4.66561	4.67834	4.66547	4.61535	4.52874	4.46169	4.42685	4.39313	4.38401	4.38726	4.39769	4.44446	4.50015	4.52653	4.55625	4.58716	4.63882	4.64449	4.61751	4.60282	4.58626	4.56983	4.54953	4.51198	4.49145	4.44362	4.4006	4.35469	4.31058	4.2691	4.22559	4.19291	4.16523	4.13887	4.14658	4.15685	4.17445	4.17746	4.19532	4.21278	4.2424	4.26532	4.29212	4.31714	4.34275	4.36914	4.38064	4.3768	4.38785	4.40584	4.39844	4.37698	4.3699	4.3536	4.31682	4.31111	4.30344	4.28065	4.25603	4.2285	4.20851	4.18333	4.14567	4.10242	4.06371	4.02546	4.05758	4.0409	4.03225	4.02113	4.01315	4.00975	4.00041	3.99519	3.98549	3.98027	3.97101	3.9656	3.95948	3.95624	3.95462	3.95531	3.95846	3.96353	3.97137	3.98104	3.99329	4.00756	4.01912	4.01141	4.00479	3.99894	4.01947	4.05058	4.06539	4.08712	4.08322	4.08555	4.09738	4.06646	4.04789	4.02966	4.00816	3.97377	3.94133	3.91089	3.88432	3.86469	3.8508	3.83931	3.83915	3.89141	3.93409	3.92702	3.89723	3.87094	3.88156	3.90586	3.91631	3.90788	3.92761	3.94613	3.97503	3.99556	4.05919	4.09747	4.10056	4.06746	4.0044	3.94304	3.87016	3.81583	3.85458	3.85937	3.86943	3.88358	3.87199	3.83776	3.79297	3.77888	3.79925	3.81191	3.8319	3.83022	3.77313	3.65807	3.66205	3.69274	3.67873	3.6659	3.65964	3.65979	3.66997	3.68264	3.70494	3.73594	3.79062	3.86451	3.94795	4.03276	4.11623	4.19772	4.26424	4.34572	4.3878	4.41784	4.28505	4.17955	4.0703	3.96184	3.79892	3.8418	3.93934	4.04934	4.14022	4.1441	4.08561	4.04356	4.01057	3.97648	3.95478	3.97511	4.02826	4.11609	4.13639	4.16114	4.18415	4.20964	4.23231	4.23742	4.22093	4.21278	4.20381	4.20489	4.20537	4.21807	4.23164	4.25782	4.28783	4.34804	4.42528	4.49967	4.59076	4.65423	4.71638	4.54753	4.54954	4.55485	4.6216	4.72364	4.78211	4.75125	4.73745	4.68797	4.63526	4.5372	4.41403	4.32554	4.3536	4.42424	4.4671	4.50015	4.53319	4.48883	4.5203	4.65033	4.68761	4.72734	4.81333	4.92358	5.01622	5.11478	5.22673	5.32982	5.41311	5.46604	5.48935	5.41678	5.33926	5.26103	5.17986	5.11624	5.1105	5.12679	5.1812	5.22982	5.299	5.38059	5.47618	5.58105	5.70516	5.82452	5.91879	5.99097	6.02989	6.05521	6.08832	6.13028	6.11562	6.16476	6.33421	6.51966	6.7643	6.98283	7.1915	7.39635	7.62854	7.85997	8.14445	8.42896	8.76238	9.10387	9.47404	9.81315	10.1784	10.5791	11.0324	11.5113	12.0933	12.7098	13.3175	14.0914	14.9591	16.0419	17.3623	19.0071	20.9449	23.5657	27.5427	31.8721	33.2273	38.0019	46.0355	55.1925	62.0321	77.1392	97.2673	121.536	153.679	188.478	220.961	243.468	241.949	217.337	191.409	156.392	122.043	100.465	80.3014	68.3418	50.86	44.461	39.9989	32.5708	29.3543	26.4868	23.355	21.2827	19.7748	18.2467	16.9534	15.685	14.5208	13.4659	13.0313	12.346	11.8116	11.2355	10.6572	10.0985	9.605	9.20964	8.82867	8.47944	8.11374	7.78314	7.5002	7.28532	7.09615	6.95407	6.87617	6.86207	6.84295	6.77586	6.69052	6.57629	6.46859	6.36281	6.22663	6.03286	5.8901	5.77974	5.70988	5.64021	5.52352	5.39113	5.2619	5.14566	5.04227	4.95299	4.87495	4.80968	4.75729	4.72023	4.66061	4.65273	4.64694	4.64871	4.6521	4.66219	4.67507	4.68856	4.70266	4.71339	4.67189	4.63288	4.61276	4.60265	4.54967	4.54236	4.51686	4.47456	4.41275	4.31759	4.23142	4.15755	4.08918	4.04514	4.00721	4.16992	4.23473	4.31772	4.26021	3.98115	3.998	4.04945	4.12112	4.18934	4.27936	4.46968	4.45962	4.44216	4.39989	4.34286	4.25355	4.18279	4.14053	4.10499	4.04242	4.01628	3.99885	3.98505	3.94718	3.90832	3.87943	3.87494	3.86027	3.84394	3.83501	3.82497	3.82073	3.81607	3.8156	3.81539	3.81788	3.8212	3.82595	3.81238	3.75504	3.76538	3.73397	3.70476	3.65533	3.47225	3.52966	3.61668	3.71662	3.83953	3.92969	3.93967	3.94763	3.95445	3.96012	3.96473	3.96822	3.97061	3.94349	3.9165	3.90108	3.89589	3.90433	3.91618	3.93608	3.95935	3.95319	3.94692	3.94227	3.93775	3.93681	3.93459	3.93548	3.93712	3.93912	3.9417	3.94488	3.94814	3.9514	3.95047	3.95051	3.94644	3.9442	3.93727	3.90941	3.82613	3.76917	3.71155	3.67784	3.64896	3.63319	3.60747	3.56778	3.54925	3.53118	3.52482	3.53894	3.53695	3.52035	3.5167	3.50945	3.48186	3.44145	3.40692	3.38313	3.31342	3.31802	3.32503	3.33921	3.35938	3.40943	3.51119	3.55876	3.61939	3.68441	3.72738	3.77187	3.81267	3.85061	3.86915	3.86759	3.83385	3.82216	3.80727	3.79004	3.77495	3.76436	3.74417	3.70114	3.64789	3.64256	3.65664	3.6649	3.67956	3.69028	3.70932	3.73247	3.75167	3.7636	3.77765	3.79935	3.8143	3.83166	3.8471	3.86479	3.87173	3.86532	3.85943	3.85201	3.84379	3.83481	3.82509	3.8145	3.80321	3.79083	3.77694	3.76147	3.7444	3.72582	3.70519	3.68318	3.66141	3.65066	3.64594	3.64529	3.64911	3.65583	3.66628	3.72088	3.74369	3.75637	3.767	3.76983	3.76662	3.75554	3.73578	3.70741	3.48022	3.43232	3.40378	3.50559	3.58559	3.6618	3.77889	3.87283	3.89748	3.94761	3.98328	4.01569	4.04202	4.04836	3.98665	3.93281	3.89774	3.86664	3.82817	3.771	3.65369	3.7092	3.83378	3.82506	3.81416	3.839	3.89835	3.91887	3.95853	3.96065	3.9737	3.97931	3.98816	3.99185	3.98519	3.99998	3.98001	3.9869	3.95626	3.92032	3.85763	3.78148	3.6957	3.62482	3.53541	3.5053	3.51491	3.60759	3.67982	3.75973	3.84948	3.93509	4.00255	4.06042	4.09058	4.13994	4.18438	4.21291	4.23041	4.24513	4.30201	4.28199	4.26602	4.22683	4.18624	4.1361	4.09111	4.03498	3.97949	3.9279	3.88543	3.83896	3.80452	3.76596	3.74709	3.79208	3.79058	3.80105	3.8069	3.78576	3.81718	3.84631	3.88036	3.91671	3.95793	3.94141	3.91814	3.87378	3.8554	3.82686	3.80366	3.81846	3.86786	3.88145	3.90889	3.94415	3.9822	4.00695	4.03409	4.05188	4.08283	4.05486	4.03102	4.00283	3.98173	3.95486	3.937	3.91264	3.8982	3.84569	3.76063	3.72067	3.7244	3.73161	3.81443	3.86196	3.86366	3.86527	3.86625	3.86826	3.89494	3.89295	3.88977	3.88516	3.88019	3.87307	3.86645	3.83846	3.7802	3.7179	3.70188	3.69444	3.71171	3.78705	3.77129	3.75504	3.73861	3.72233	3.70156	3.69149	3.68396	3.67917	3.67429	3.67428	3.67332	3.67494	3.63229	3.63347	3.64054	3.63618	3.64813	3.66897	3.70974	3.74513	3.75484	3.76347	3.77346	3.78182	3.79258	3.80297	3.81494	3.82718	3.84006	3.84401	3.8387	3.83044	3.82726	3.82189	3.79786	3.81846	3.84213	3.86471	3.88949	3.92457	3.95344	3.97854	3.9832	3.9877	3.99316	3.99682	4.0018	4.0065	4.01095	4.0152	4.01925	4.02309	4.02668	4.02996	4.03286	4.03393	4.03547	4.03586	4.01452	3.982	3.94011	3.88686	3.85168	3.83829	3.85741	3.87409	3.90587	3.92477	3.95062	3.9843	3.98526	3.96305	3.94287	3.91974	3.8976	3.87598	3.85604	3.84189	3.82771	3.82619	3.82429	3.84345	3.86362	3.91348	3.9813	4.01593	4.0419	4.0283	4.01384	4.03838	4.04191	4.04774	4.10167	4.1423	4.12788	3.94694	3.7029	3.49852	3.34103	3.24351	3.30073	3.42796	3.47388	3.5234	3.59165	3.67886	3.7746	3.8208	3.84047	3.89081	3.95507	4.02219	4.04436	4.02653	4.01966	4.04324	4.00579	3.98637	4.00751	3.97845	3.83822	3.72949	3.65318	3.61493	3.67274	4.18673
