Acq. time (s)=	4
Accumulations=	3
Range=	Off
Autofocus=	At all XY pixels
SWIFT=	Off
AutoExposure=	Off
Spike filter=	Multiple accum.
Delay time (s)=	0
Binning=	1
Readout mode=	Signal
DeNoise=	Standard
ICS correction=	On
Dark correction=	Off
Inst. Process=	Off
Instrument=	LabRAM S3000
Detector=	Synapse
Objective=	x100
Grating=	1800
ND Filter=	25%
Laser (nm)=	632.81 
Spectro (cm-¹)=	521.228
Slit=	100.021
Hole=	199.981
Microscope=	Principal
StageXY=	Märzhauser
StageZ=	Märzhauser
Z (µm)=	-600.7
Project=	
Sample=	
Site=	
Title=	SOP_200nm_furu_p0.30
Remark=	
Date=	14.06.2019 11:51
Operator=	
Acquired=	14.06.2019 11:51:42
		358.285	358.609	358.934	359.26	359.585	359.909	360.235	360.56	360.886	361.21	361.535	361.859	362.185	362.51	362.834	363.16	363.485	363.809	364.135	364.459	364.784	365.108	365.434	365.758	366.083	366.407	366.733	367.057	367.381	367.705	368.03	368.355	368.68	369.004	369.328	369.652	369.978	370.302	370.626	370.95	371.274	371.598	371.923	372.248	372.572	372.896	373.22	373.544	373.868	374.192	374.516	374.84	375.164	375.49	375.813	376.137	376.461	376.785	377.109	377.433	377.757	378.081	378.404	378.728	379.052	379.376	379.699	380.023	380.347	380.671	380.994	381.318	381.642	381.965	382.288	382.611	382.935	383.258	383.582	383.906	384.229	384.553	384.876	385.2	385.522	385.845	386.169	386.492	386.816	387.139	387.463	387.785	388.108	388.431	388.755	389.078	389.402	389.723	390.047	390.37	390.693	391.015	391.338	391.662	391.985	392.307	392.63	392.953	393.276	393.598	393.921	394.244	394.566	394.889	395.212	395.535	395.857	396.18	396.503	396.825	397.148	397.471	397.792	398.115	398.437	398.76	399.083	399.404	399.727	400.049	400.372	400.694	401.016	401.339	401.66	401.983	402.304	402.627	402.95	403.271	403.594	403.915	404.238	404.559	404.882	405.203	405.526	405.847	406.17	406.491	406.814	407.135	407.456	407.778	408.1	408.422	408.743	409.066	409.387	409.708	410.03	410.351	410.674	410.995	411.316	411.638	411.959	412.282	412.602	412.923	413.246	413.567	413.888	414.21	414.531	414.852	415.174	415.495	415.815	416.136	416.458	416.779	417.1	417.421	417.743	418.064	418.384	418.705	419.027	419.348	419.668	419.989	420.311	420.632	420.952	421.273	421.593	421.914	422.236	422.556	422.877	423.197	423.518	423.838	424.16	424.481	424.801	425.121	425.442	425.762	426.083	426.403	426.723	427.044	427.365	427.686	428.006	428.326	428.647	428.967	429.287	429.607	429.927	430.248	430.568	430.888	431.208	431.528	431.848	432.169	432.489	432.809	433.129	433.449	433.769	434.088	434.408	434.728	435.048	435.368	435.688	436.008	436.327	436.647	436.967	437.287	437.606	437.926	438.245	438.565	438.885	439.205	439.523	439.843	440.163	440.483	440.802	441.121	441.44	441.76	442.08	442.4	442.718	443.037	443.357	443.677	443.995	444.315	444.634	444.954	445.272	445.591	445.911	446.229	446.549	446.868	447.186	447.506	447.825	448.143	448.463	448.782	449.1	449.419	449.739	450.057	450.376	450.695	451.013	451.333	451.65	451.97	452.288	452.607	452.926	453.244	453.563	453.881	454.2	454.518	454.837	455.155	455.474	455.792	456.111	456.428	456.748	457.065	457.384	457.702	458.021	458.338	458.658	458.975	459.294	459.612	459.929	460.248	460.566	460.884	461.202	461.519	461.838	462.156	462.475	462.792	463.109	463.428	463.746	464.063	464.382	464.699	465.016	465.335	465.652	465.97	466.288	466.606	466.923	467.242	467.559	467.876	468.193	468.512	468.829	469.146	469.463	469.782	470.099	470.416	470.733	471.05	471.369	471.686	472.003	472.32	472.637	472.954	473.272	473.589	473.906	474.223	474.54	474.857	475.174	475.492	475.809	476.126	476.442	476.759	477.076	477.393	477.71	478.026	478.343	478.66	478.977	479.293	479.61	479.928	480.245	480.562	480.878	481.195	481.512	481.828	482.145	482.461	482.777	483.093	483.41	483.726	484.043	484.359	484.676	484.992	485.309	485.625	485.942	486.258	486.575	486.889	487.206	487.522	487.839	488.155	488.471	488.788	489.104	489.419	489.735	490.051	490.368	490.684	490.999	491.315	491.631	491.947	492.264	492.578	492.895	493.211	493.527	493.842	494.158	494.474	494.79	495.104	495.421	495.737	496.051	496.367	496.683	496.998	497.314	497.63	497.944	498.26	498.576	498.891	499.206	499.522	499.837	500.153	500.469	500.783	501.099	501.413	501.729	502.043	502.359	502.675	502.989	503.305	503.619	503.935	504.249	504.565	504.879	505.195	505.509	505.825	506.139	506.454	506.769	507.084	507.398	507.714	508.028	508.343	508.658	508.973	509.287	509.601	509.917	510.231	510.546	510.86	511.174	511.489	511.803	512.119	512.433	512.747	513.062	513.376	513.69	514.005	514.319	514.633	514.948	515.262	515.576	515.891	516.204	516.518	516.832	517.147	517.461	517.775	518.088	518.403	518.717	519.031	519.344	519.659	519.973	520.287	520.6	520.914	521.229	521.542	521.856	522.169	522.483	522.797	523.111	523.425	523.738	524.052	524.365	524.679	524.992	525.305	525.62	525.934	526.247	526.56	526.874	527.187	527.5	527.814	528.127	528.44	528.753	529.067	529.38	529.693	530.006	530.32	530.633	530.946	531.259	531.572	531.885	532.198	532.512	532.825	533.138	533.451	533.764	534.077	534.39	534.702	535.015	535.328	535.641	535.953	536.266	536.579	536.892	537.204	537.517	537.83	538.142	538.455	538.768	539.08	539.392	539.705	540.018	540.331	540.642	540.955	541.268	541.58	541.893	542.204	542.517	542.83	543.141	543.454	543.766	544.079	544.39	544.703	545.015	545.327	545.639	545.952	546.263	546.575	546.888	547.199	547.511	547.824	548.135	548.447	548.76	549.071	549.383	549.694	550.007	550.319	550.63	550.942	551.253	551.565	551.876	552.189	552.5	552.812	553.123	553.435	553.746	554.058	554.369	554.681	554.992	555.304	555.615	555.927	556.237	556.55	556.86	557.172	557.483	557.795	558.106	558.416	558.728	559.039	559.351	559.662	559.972	560.284	560.595	560.905	561.217	561.528	561.838	562.15	562.46	562.771	563.083	563.393	563.704	564.015	564.326	564.636	564.947	565.258	565.569	565.879	566.189	566.501	566.811	567.122	567.432	567.743	568.054	568.364	568.674	568.984	569.296	569.606	569.916	570.226	570.536	570.847	571.158	571.468	571.778	572.088	572.398	572.708	573.018	573.329	573.639	573.95	574.26	574.57	574.88	575.19	575.5	575.81	576.12	576.429	576.739	577.049	577.359	577.669	577.979	578.289	578.598	578.908	579.218	579.528	579.837	580.147	580.457	580.767	581.076	581.386	581.694	582.004	582.314	582.623	582.933	583.242	583.552	583.862	584.171	584.479	584.789	585.098	585.408	585.718	586.027	586.335	586.645	586.954	587.263	587.573	587.881	588.19	588.5	588.809	589.119	589.426	589.736	590.045	590.354	590.662	590.972	591.281	591.589	591.898	592.207	592.515	592.824	593.134	593.441	593.751	594.06	594.367	594.677	594.986	595.294	595.603	595.912	596.219	596.528	596.836	597.145	597.454	597.762	598.071	598.378	598.687	598.995	599.304	599.611	599.92	600.228	600.537	600.846	601.153	601.462	601.77	602.077	602.386	602.693	603.002	603.309	603.618	603.926	604.234	604.542	604.85	605.158	605.465	605.774	606.081	606.39	606.697	607.004	607.313	607.62	607.927	608.236	608.543	608.85	609.159	609.466	609.773	610.081	610.389	610.696	611.004	611.311	611.618	611.925	612.234	612.541	612.848	613.155	613.463	613.77	614.077	614.384	614.691	614.999	615.306	615.613	615.92	616.227	616.535	616.842	617.149	617.456	617.762	618.069	618.376	618.684	618.991	619.298	619.604	619.911	620.218	620.524	620.831	621.138	621.444	621.751	622.058	622.366	622.672	622.979	623.286	623.592	623.899	624.205	624.512	624.818	625.125	625.431	625.738	626.044	626.349	626.656	626.962	627.269	627.575	627.881	628.188	628.494	628.8	629.107	629.413	629.719	630.024	630.331	630.637	630.943	631.25	631.556	631.861	632.167	632.473	632.779	633.085	633.392	633.696	634.003	634.309	634.615	634.919	635.226	635.532	635.838	636.142	636.448	636.754	637.06	637.365	637.671	637.977	638.282	638.588	638.894	639.198	639.504	639.81	640.114	640.42	640.726	641.031	641.337	641.642	641.947	642.253	642.557	642.863	643.169	643.473	643.779	644.083	644.389	644.693	644.999	645.305	645.609	645.914	646.219	646.524	646.829	647.134	647.438	647.744	648.048	648.354	648.658	648.962	649.268	649.572	649.877	650.181	650.487	650.791	651.095	651.4	651.704	652.01	652.314	652.618	652.923	653.227	653.533	653.836	654.14	654.446	654.75	655.054	655.357	655.663	655.967	656.27	656.576	656.879	657.183	657.488	657.792	658.096	658.4	658.705	659.009	659.312	659.616	659.92	660.225	660.529	660.832	661.136	661.44	661.745	662.048	662.352	662.655	662.959	663.263	663.566	663.871	664.175	664.478	664.782	665.085	665.389	665.692	665.996	666.299	666.602	666.906	667.209	667.514	667.817	668.121	668.424	668.728	669.031	669.334	669.638	669.941	670.244	670.547	670.851	671.154	671.456	671.759	672.062	672.365	672.669	672.972	673.275	673.578	673.881	674.184	674.487	674.791	675.092	675.395	675.698	676.002	676.305	676.608	676.911	677.212	677.515	677.818	678.121	678.424	678.726	679.029	679.332
-20	-20	4.14054	4.23477	4.23266	4.22974	4.2297	4.22611	4.19076	4.14796	4.10751	4.06447	3.96175	3.89756	3.83938	3.77131	3.75572	3.74171	3.74395	3.75354	3.76832	3.78462	3.80674	3.83044	3.85656	3.87087	3.86699	3.86352	3.85863	3.854	3.8495	3.86551	3.8911	3.93315	3.98305	4.05656	4.13718	4.16907	4.1853	4.20396	4.22575	4.21796	4.20223	4.15247	4.09573	4.04424	3.99211	3.96845	3.95704	3.94833	3.94875	3.95463	3.97106	3.96197	3.95508	3.94627	3.93542	3.9272	3.91376	3.88517	3.86977	3.84707	3.82756	3.76551	3.72202	3.73965	3.77135	3.84902	3.92704	4.01953	4.07259	4.12439	4.10767	4.19083	4.25288	4.26559	4.27843	4.23144	4.20431	4.14224	4.07741	4.02333	3.96669	3.91046	3.86293	3.80921	3.80993	3.82186	3.84743	3.8758	3.9187	3.98977	4.03758	4.072	4.11521	4.16942	4.21944	4.26732	4.32042	4.35543	4.359	4.33844	4.31578	4.26981	4.23317	4.19571	4.2024	4.19693	4.19676	4.15318	4.11577	4.07493	4.03975	4.00672	3.99218	3.97886	3.97104	3.95587	3.91649	3.85805	3.86501	3.87211	3.92485	3.96576	3.98616	3.98867	3.99111	3.98648	3.97284	3.95214	3.93105	3.91174	3.88739	3.86472	3.83856	3.81285	3.77374	3.74812	3.72353	3.7065	3.69457	3.66544	3.69822	3.71488	3.74995	3.79706	3.8353	3.86548	3.85713	3.84947	3.84627	3.8445	3.84444	3.84994	3.85708	3.86801	3.87435	3.88404	3.89216	3.89892	3.90598	3.8952	3.77373	3.44905	3.30769	3.16272	3.41854	3.91458	4.04581	4.07357	4.10164	4.05392	3.91497	3.8968	3.72513	3.52582	3.26759	3.68183	3.68784	3.69177	3.69734	3.707	3.71094	3.72504	3.73854	3.75753	3.71117	3.62244	3.5696	3.62191	3.73301	3.90717	3.98186	4.02418	4.05471	4.09516	4.12237	4.14892	4.15254	4.01238	3.87316	3.88747	3.94957	3.99091	4.03674	4.04356	4.0702	4.09224	4.12326	4.13987	4.16537	4.19116	4.21401	4.20924	4.18248	4.15711	4.1058	4.06383	4.027	3.99369	3.95895	3.94982	3.96653	3.99107	4.015	4.03827	4.06839	4.09104	4.11659	4.14369	4.19498	4.23586	4.26583	4.25849	4.27022	4.28233	4.2819	4.09275	3.98452	3.92429	3.84614	3.85775	3.87406	3.89566	3.91088	3.84588	3.75325	3.74774	3.75942	3.77817	3.80494	3.84028	3.88576	3.93275	3.9841	4.03511	4.08087	4.13685	4.18035	4.20227	4.22368	4.22585	4.20826	4.18801	4.16459	4.13899	4.11094	4.08649	4.02303	3.9921	3.9491	3.91616	3.86387	3.84464	3.82573	3.81461	3.82181	3.82279	3.83714	3.84783	3.85969	3.87035	3.88453	3.89939	3.88492	3.8555	3.82041	3.80653	3.80168	3.79969	3.81165	3.81899	3.82505	3.828	3.83705	3.84242	3.85325	3.86193	3.87154	3.88822	3.89293	3.88183	3.87164	3.86049	3.85055	3.84147	3.83293	3.82507	3.81982	3.81236	3.80925	3.80705	3.80691	3.8026	3.78081	3.75761	3.73781	3.72564	3.70621	3.71304	3.71269	3.75751	3.78181	3.80732	3.83861	3.86794	3.90641	3.94304	3.9768	3.99841	4.0056	4.01341	4.02017	4.02416	3.98978	3.95573	3.91188	3.85772	3.77889	3.71262	3.65148	3.71777	3.78011	3.8595	3.9447	3.97596	4.0051	4.02325	4.03782	4.04207	4.04257	4.04531	4.03065	4.00573	3.96255	3.95208	3.94485	3.93646	3.93085	3.95825	3.95671	3.90894	3.84995	3.79485	3.74561	3.70956	3.66361	3.66205	3.66688	3.68261	3.71269	3.76348	3.82835	3.88443	3.99179	4.004	4.01426	4.02357	4.02924	3.97611	3.96105	3.92945	3.89448	3.85914	3.83363	3.80494	3.77925	3.75998	3.74875	3.73316	3.74721	3.78244	3.80909	3.83546	3.84926	3.85243	3.85629	3.87096	3.88966	3.92218	3.94806	4.0083	4.06453	4.12358	4.18697	4.23964	4.26799	4.29514	4.31693	4.33754	4.35067	4.35704	4.3146	4.29235	4.24863	4.20713	4.15351	4.10951	4.05981	4.00271	3.93143	3.88112	3.8702	3.90708	3.98761	4.02334	4.06734	4.11286	4.15823	4.21861	4.24192	4.2715	4.27147	4.277	4.28331	4.28867	4.29876	4.30623	4.27476	4.23464	4.20395	4.22531	4.25057	4.30279	4.33906	4.4214	4.51506	4.6124	4.73035	4.79328	4.8644	4.94101	4.96091	4.95211	4.93182	4.91807	4.93916	4.96311	5.00219	5.05606	5.07261	5.09631	5.12342	5.17719	5.22595	5.29042	5.35831	5.43946	5.5452	5.6559	5.78133	5.90705	6.05198	6.20602	6.3774	6.55074	6.74624	6.95351	7.18247	7.68847	8.08019	8.5641	9.0986	9.5613	10.1283	10.7777	11.5161	12.4738	13.6829	15.1474	16.6499	18.6613	21.1055	24.1702	28.8804	34.6917	41.337	46.8777	58.0986	76.2859	92.8602	107.636	113.717	113.935	101.272	85.9407	73.8035	59.8938	47.9045	38.1854	31.1904	26.2071	22.6917	20.153	18.2262	16.6646	15.2137	13.934	12.6899	11.5437	10.5474	9.91819	9.22148	8.52887	8.05441	7.66917	7.34695	7.08271	6.88741	6.72346	6.55844	6.4236	6.26809	6.13329	6.02049	5.91958	5.82144	5.73049	5.64197	5.55881	5.4768	5.40481	5.32893	5.23515	5.19064	5.1098	5.02568	4.93206	4.86546	4.78366	4.71896	4.64578	4.59375	4.52435	4.46994	4.45431	4.43558	4.42428	4.39728	4.37904	4.27736	4.18096	4.07754	4.02624	3.98963	3.95255	3.9883	4.03399	4.10663	4.17945	4.15825	4.06945	3.94539	3.82426	3.71789	3.62205	3.55226	3.63787	3.83205	3.93984	4.04032	4.06557	4.08019	4.08386	4.08191	4.08023	4.07199	4.05261	4.04851	4.07021	4.07659	4.07047	4.05653	3.96716	3.90786	3.87326	3.83919	3.90981	3.90694	3.91515	3.82176	3.5953	2.9536	3.25185	3.5794	3.75909	3.83245	3.82146	3.79635	3.8725	3.88183	3.84243	3.84081	3.83741	3.84364	3.84537	3.85847	3.85116	3.81327	3.81191	3.82231	3.85279	3.8933	3.94859	4.02975	4.07458	4.05126	4.01125	3.96485	3.91959	3.89626	3.89278	3.87949	3.85488	3.82602	3.7981	3.79448	3.80649	3.85829	3.79637	3.72841	3.70572	3.68852	3.66835	3.6491	3.60063	3.57997	3.57361	3.57115	3.57595	3.57712	3.57014	3.55428	3.52923	3.49756	3.4959	3.51424	3.52801	3.51837	3.54013	3.56035	3.57702	3.58882	3.60011	3.62686	3.65851	3.70097	3.74723	3.7535	3.73656	3.7192	3.71389	3.71178	3.72701	3.73373	3.74366	3.75984	3.75845	3.73832	3.712	3.67736	3.62344	3.57333	3.53097	3.52648	3.53856	3.60014	3.67491	3.75359	3.76807	3.78283	3.78475	3.77315	3.74157	3.6985	3.65845	3.64647	3.63243	3.60827	3.57006	3.56571	3.55341	3.52998	3.51883	3.57205	3.62702	3.67576	3.71275	3.72158	3.72548	3.68785	3.71184	3.71761	3.71245	3.69063	3.62037	3.48343	3.45091	3.4877	3.53797	3.50648	3.52736	3.51193	3.49615	3.48342	3.47293	3.46413	3.45567	3.44668	3.44745	3.45602	3.47198	3.49403	3.52355	3.55427	3.57097	3.58037	3.59834	3.62462	3.66034	3.71039	3.75335	3.79801	3.81439	3.81076	3.77513	3.764	3.76515	3.76119	3.73031	3.6967	3.66622	3.60193	3.52714	3.46759	3.41753	3.36639	3.32243	3.28758	3.26074	3.25732	3.33986	3.41425	3.50609	3.59467	3.69376	3.80446	3.86562	3.91591	3.90291	3.84911	3.82917	3.89685	3.87204	3.83668	3.81306	3.81459	3.73928	3.60261	3.76532	3.87773	3.98099	4.07191	4.15728	4.17564	4.08985	3.9382	4.11374	4.10434	4.08951	4.00563	3.80108	3.59514	3.42901	3.43614	3.42426	3.43411	3.46836	3.51909	3.60401	3.66564	3.69573	3.69679	3.70004	3.68562	3.65342	3.58647	3.56959	3.55718	3.54937	3.55089	3.57707	3.62502	3.67547	3.72455	3.78077	3.8083	3.81268	3.82732	3.82999	3.83608	3.83904	3.84362	3.83862	3.83986	3.84148	3.83948	3.84678	3.85727	3.87246	3.8872	3.90543	3.92448	3.9145	3.8787	3.82998	3.7815	3.73968	3.69365	3.6578	3.68673	3.67714	3.69694	3.72262	3.75929	3.8032	3.81408	3.75824	3.68002	3.66205	3.71796	3.82874	3.82551	3.81056	3.76169	3.21882	3.63659	3.56734	3.48962	3.43617	3.41806	3.52967	3.60746	3.64488	3.66858	3.69018	3.7081	3.72985	3.74883	3.77032	3.78909	3.7826	3.77227	3.76223	3.75559	3.75043	3.74438	3.74817	3.75256	3.78268	3.78378	3.78821	3.79058	3.79189	3.78983	3.78655	3.78256	3.784	3.79077	3.79333	3.80793	3.8056	3.82625	3.83779	3.85358	3.8691	3.85929	3.83894	3.84656	3.85724	3.871	3.88766	3.90643	3.92883	3.95278	4.00955	4.02389	4.0262	4.03831	4.02606	4.00261	3.98047	3.95738	3.9351	3.90674	3.86789	3.80233	3.73733	3.57922	3.573	3.56956	3.56768	3.66977	3.73662	3.78914	3.84413	3.8858	3.88534	3.88215	3.85388	3.87532	3.9002	3.92588	3.97455	3.96962	3.96584	3.97095	3.96743	3.9472	3.92549	3.9001	3.87437	3.84579	3.8179	3.78769	3.76029	3.72576	3.68926	3.63589	3.64816	3.66383	3.66832	3.65384	3.63349	3.62126	3.62793	3.63266	3.69259	3.73076	3.77388	3.8105	3.77485	3.74115	3.69891	3.61682	3.53674	3.46021	3.40791	3.38742	3.37345	3.38312	3.39992	3.42971	3.44585	3.48933	3.53413	3.59617	3.67375	3.74919	3.8337	3.91828	3.9682	4.00857	4.04797	4.07294	4.08927	4.11272	4.05261	3.93698	3.61307	3.72933	3.83297	3.89389	3.84737	3.79598	3.76938	3.72236	3.70465	3.69346	3.70803	3.71431	3.70055	3.71265	3.68399	3.69675	3.71366	3.72024	3.72443	3.73788	3.74876	3.77016	3.79399	3.81536	3.84421	3.87175	3.89628	3.89438	3.88775	3.88566	3.8735	3.81573	3.76205	3.70862	3.64521	3.58962	3.52012
-20	0	3.44459	3.40842	3.38453	3.37934	3.41419	3.43671	3.40785	3.42599	3.48645	3.54085	3.605	3.66561	3.72988	3.76243	3.77426	3.7846	3.78922	3.78789	3.79015	3.73227	3.66127	3.60058	3.57355	3.56477	3.56705	3.58677	3.65479	3.70147	3.75972	3.70141	3.62674	3.55658	3.50224	3.44774	3.52204	3.56761	3.62748	3.67935	3.75114	3.79747	3.76376	3.74926	3.75564	3.75913	3.76698	3.82594	3.83183	3.81296	3.75537	3.67984	3.55576	3.50537	3.45501	3.40958	3.40233	3.39361	3.39782	3.45243	3.45587	3.45281	3.44785	3.42973	3.40341	3.38156	3.35695	3.34098	3.31261	3.31897	3.31509	3.30386	3.23433	3.23575	3.24092	3.25001	3.26198	3.27823	3.29501	3.34684	3.36849	3.40224	3.43381	3.46182	3.48734	3.51171	3.53345	3.55431	3.57322	3.5936	3.61138	3.62563	3.63752	3.64742	3.6543	3.66071	3.63711	3.60895	3.58477	3.4503	3.2905	3.23015	2.76258	3.55723	3.54585	3.53419	3.52238	3.51127	3.4145	3.3217	3.40691	3.48593	3.48402	3.46655	3.41945	3.4136	3.41334	3.43471	3.43169	3.4753	3.52807	3.56649	3.61842	3.55274	3.31182	3.03038	2.75902	2.62117	3.01141	3.47812	3.54116	3.5476	3.45131	3.44542	3.44599	3.4512	3.46102	3.46595	3.45232	3.43637	3.42629	3.39457	3.40895	3.47033	3.48194	3.49727	3.50432	3.52118	3.53113	3.52382	3.49569	3.46253	3.41163	3.37684	3.36144	3.33958	3.34782	3.35844	3.37274	3.45097	3.49866	3.54198	3.59356	3.64201	3.69291	3.74239	3.79049	3.82692	3.83539	3.84755	3.83766	3.83395	3.8291	3.82376	3.81719	3.80525	3.80014	3.78683	3.79257	3.77784	3.75721	3.70629	3.65303	3.6512	3.71825	3.71918	3.68399	3.72893	3.78929	3.82064	3.84263	3.82961	3.82785	3.81379	3.80495	3.79014	3.77255	3.75232	3.67709	3.62158	3.61617	3.61349	3.6166	3.62297	3.61996	3.61151	3.6218	3.62685	3.63709	3.64891	3.66674	3.67726	3.69111	3.70254	3.71705	3.71013	3.70687	3.71059	3.72492	3.74559	3.75455	3.7659	3.77759	3.78929	3.79966	3.80892	3.8188	3.82029	3.83944	3.8308	3.82212	3.81253	3.8031	3.79048	3.75964	3.7162	3.64791	3.63606	3.62593	3.62075	3.61372	3.66105	3.69777	3.72055	3.70285	3.6978	3.73049	3.72228	3.89561	3.31161	3.18708	3.30508	3.36067	3.55683	3.47057	3.42829	3.38755	3.35122	3.34055	3.38629	3.40361	3.44174	3.48656	3.53479	3.58459	3.63396	3.68251	3.73118	3.77759	3.79644	3.80672	3.80819	3.77769	3.68852	3.5708	3.53357	3.52745	3.53651	3.57803	3.6368	3.70386	3.75306	3.77481	3.81036	3.81511	3.79198	3.78636	3.77479	3.77614	3.81071	3.80939	3.78618	3.75741	3.72818	3.6876	3.67827	3.64912	3.66333	3.63686	3.56942	3.33941	3.29864	3.33076	3.37813	3.46995	3.5884	3.70249	3.75921	3.79414	3.8275	3.78059	3.73218	3.69853	3.63213	3.5429	3.51267	3.33664	3.25034	3.21057	3.2391	3.1559	3.03991	3.12079	3.36302	3.56698	3.88105	4.20775	4.25599	4.25259	4.23273	4.18942	4.07827	3.45901	3.15317	2.94859	2.8181	2.72723	2.77387	2.83084	2.89682	2.97022	3.04276	3.12252	3.19508	3.27488	3.34322	3.41058	3.47792	3.53709	3.58938	3.64594	3.68956	3.71297	3.71183	3.71628	3.72921	3.74852	3.78479	3.81865	3.85868	3.86922	3.87657	3.88138	3.93576	3.98398	3.98754	3.98034	3.92842	3.87888	3.8398	3.8034	3.78125	3.7611	3.75163	3.75095	3.76774	3.78732	3.81644	3.83337	3.85441	3.86634	3.87799	3.88003	3.8667	3.82508	3.72278	3.69576	3.68357	3.68236	3.68369	3.68597	3.69429	3.70334	3.71933	3.73329	3.74643	3.70754	3.70744	3.81653	3.81583	3.81804	3.81795	3.82048	3.82063	3.82274	3.79923	3.73952	3.68879	3.60805	3.59089	3.58289	3.57794	3.57644	3.5828	3.59141	3.60684	3.62201	3.64222	3.66206	3.68446	3.70297	3.72886	3.74705	3.77221	3.78772	3.8017	3.81855	3.82611	3.84359	3.85196	3.8804	3.90499	3.93394	3.96316	3.99214	4.02273	4.05144	4.07212	4.0891	4.10488	4.1195	4.06362	4.01878	3.99675	3.97484	3.96636	3.98977	4.01072	4.0372	4.00794	3.98255	3.9558	3.93602	3.91107	3.9063	3.90331	3.89851	3.8913	3.88099	3.86757	3.85806	3.84772	3.83286	3.80139	3.75739	3.71668	3.67897	3.64546	3.61755	3.59543	3.5811	3.57503	3.57817	3.6602	3.71222	3.77874	3.87422	3.97476	4.09466	4.22772	4.38376	4.55184	4.73618	4.9411	5.17297	5.42974	5.67115	5.86714	5.85592	6.0267	6.36348	6.90385	7.66409	8.67028	9.88707	11.6031	13.6377	15.7566	18.3246	21.2928	24.5392	28.2622	30.6162	28.912	23.5017	21.2182	18.2379	15.5566	13.3403	11.6415	10.131	8.81308	7.86043	7.07568	6.42684	5.87533	5.39199	5.02867	4.7723	4.60816	4.55428	4.58618	4.65759	4.70116	4.48802	4.41131	4.35859	4.33856	4.34275	4.31471	4.296	4.30362	4.29436	4.28732	4.2603	4.21643	4.17498	4.13193	4.05979	4.02717	3.99224	3.96466	3.93188	3.9074	3.87868	3.85768	3.83372	3.83001	3.81629	3.80569	3.78284	3.76948	3.74986	3.72667	3.70824	3.6866	3.66859	3.62863	3.61396	3.58139	3.55606	3.52517	3.50007	3.47124	3.44599	3.41853	3.3975	3.38998	3.38461	3.39886	3.43138	3.46105	3.50263	3.54539	3.59444	3.6496	3.7014	3.71379	3.74538	3.77711	3.7981	3.80478	3.8184	3.81967	3.83434	3.84775	3.85391	3.82907	3.80662	3.7902	3.78885	3.78841	3.80525	3.81465	3.82765	3.82971	3.82358	3.81184	3.85265	3.85172	3.85802	3.8256	3.77074	3.71215	3.66534	3.62783	3.60008	3.54811	3.48724	3.43572	3.39277	3.36399	3.35812	3.39596	3.43508	3.47449	3.51945	3.50903	3.47293	3.43562	3.40013	3.38339	3.36541	3.35481	3.34604	3.41984	3.43604	3.43958	3.37165	3.24723	3.28173	3.33878	3.40073	3.43963	3.48047	3.50725	3.53946	3.58446	3.63627	3.68579	3.68832	3.69631	3.697	3.6929	3.67759	3.64088	3.62736	3.57027	3.51139	3.44609	3.37865	3.31048	3.24299	3.17199	3.09903	3.04576	2.9987	2.96252	2.93617	2.92452	3.0576	3.14629	3.2296	3.29443	3.33561	3.39433	3.4394	3.37746	3.32124	3.23947	3.0382	2.95311	2.91242	2.94087	3.20492	3.26991	3.20049	3.25688	3.332	3.42624	3.53725	3.61719	3.63682	3.6496	3.62155	3.59447	3.56643	3.54083	3.5204	3.49926	3.48149	3.46406	3.45194	3.46075	3.45797	3.46438	3.46642	3.48338	3.4857	3.49514	3.48481	3.46388	3.42227	3.37782	3.3181	3.27007	3.23758	3.23061	3.22918	3.2936	3.34075	3.36214	3.37462	3.38797	3.40283	3.44102	3.37836	3.2831	3.22205	3.17296	3.20884	3.25413	3.30591	3.47542	3.46149	3.46395	3.45214	3.44592	3.46562	3.48574	3.48015	3.42327	3.38959	3.31877	3.28284	3.27841	3.22717	3.19903	3.17265	3.14706	3.13095	3.13095	3.15604	3.1779	3.20059	3.21792	3.24104	3.30162	3.36813	3.44287	3.5246	3.57897	3.62403	3.69786	3.70441	3.66434	3.61044	3.55292	3.50734	3.45189	3.42683	3.39909	3.41363	3.41877	3.41836	3.39785	3.40249	3.41991	3.45958	3.52258	3.5565	3.58198	3.60291	3.6262	3.64387	3.65814	3.66816	3.6707	3.67856	3.6889	3.6958	3.70316	3.71038	3.71788	3.72379	3.7285	3.73247	3.72428	3.718	3.71521	3.71131	3.65201	3.58572	3.51821	3.36744	3.2803	3.20249	3.11479	2.99629	2.98572	2.98249	3.06188	3.10796	3.1545	3.20696	3.26121	3.31562	3.36988	3.42321	3.47496	3.52525	3.57091	3.57412	3.51567	3.46117	3.40515	3.35727	3.31915	3.4041	3.4778	3.67977	3.78425	3.76175	3.73849	3.60543	3.52268	3.43341	3.36427	3.32802	3.31854	3.38363	3.44741	3.50193	3.55615	3.57508	3.57355	3.5655	3.55679	3.54973	3.54229	3.53762	3.53165	3.5884	3.60725	3.62312	3.63985	3.6545	3.66005	3.68584	3.68071	3.6853	3.66391	3.65014	3.60625	3.55095	3.50738	3.48589	3.44385	3.41401	3.39784	3.36434	3.33002	3.35467	3.37426	3.42305	3.45707	3.50409	3.58559	3.65294	3.72829	3.72675	3.71062	3.71173	3.70842	3.6946	3.63437	3.61106	3.58395	3.58054	3.55022	3.52683	3.51467	3.43094	3.42004	3.43041	3.43696	3.45025	3.49561	3.50236	3.48955	3.50463	3.54517	3.57318	3.59434	3.60441	3.63696	3.67768	3.65488	3.64957	3.65266	3.64465	3.60614	3.56837	3.52963	3.49314	3.46785	3.46034	3.47315	3.53308	3.56124	3.5483	3.53425	3.51483	3.48695	3.45927	3.43232	3.40599	3.3788	3.3622	3.34547	3.33247	3.32009	3.30836	3.29728	3.28258	3.28294	3.28498	3.28973	3.29827	3.31048	3.34814	3.37244	3.39663	3.42026	3.44347	3.46609	3.45749	3.46055	3.46268	3.47065	3.47475	3.48142	3.49631	3.47558	3.42087	3.40665	3.37557	3.35754	3.3732	3.45032	3.49643	3.52587	3.55021	3.53902	3.52504	3.49475	3.47791	3.46066	3.44312	3.42268	3.41	3.38556	3.36429	3.36512	3.35956	3.37636	3.38857	3.40934	3.43945	3.48818	3.52334	3.55637	3.59361	3.61758	3.55684	3.54411	3.54495	3.56589	3.58081	3.75704	3.74213	3.74028	3.7104	3.69924	3.67028	3.62439	3.58353	3.55573	3.51034	3.47189	3.44045	3.41427	3.402	3.33448	3.31748	3.30261	3.28759	3.36628	3.38891	3.40511	3.43781	3.46958	3.50025	3.52509	3.55401	3.58487	3.59269	3.54514	3.49811	3.45461	3.41193	3.34267	3.29712	3.2531	3.20826	3.19189	3.17687	3.17241	3.17207	3.17457	3.19182	3.19832	3.21752	3.28629	3.39537	3.59109
-20	20	4.25131	4.2969	4.3374	4.37643	4.41107	4.44354	4.47226	4.52122	4.54816	4.56915	4.57361	4.51682	4.45537	4.41949	4.37419	4.33774	4.31764	4.30385	4.30063	4.30399	4.30801	4.32211	4.33825	4.35727	4.37696	4.33227	4.32103	4.31055	4.30148	4.29369	4.28708	4.27939	4.27426	4.30163	4.31656	4.31894	4.32697	4.32867	4.33358	4.33637	4.33663	4.33387	4.32926	4.32144	4.31348	4.30193	4.26615	4.19562	4.13807	4.07647	4.03667	4.05564	4.04759	4.07263	4.09137	4.11879	4.11146	4.0995	4.09039	4.08225	4.08177	4.07631	4.07891	4.07644	4.08178	4.08236	4.08988	4.09896	4.10996	4.12315	4.13409	4.14724	4.15718	4.16845	4.17721	4.18811	4.20244	4.21246	4.21942	4.22619	4.22957	4.23191	4.23117	4.22875	4.22377	4.21654	4.20708	4.19518	4.18045	4.16024	4.13939	4.11598	4.09154	4.06367	4.04	4.0173	3.99363	3.97082	3.94944	3.93099	3.95972	3.96285	3.9975	3.99833	4.0284	4.05899	4.09725	4.12853	4.17653	4.22207	4.25726	4.29079	4.31696	4.33921	4.35565	4.35587	4.28779	4.2428	4.19674	4.08717	3.98427	3.91915	3.82507	3.76852	3.79225	3.82019	3.85895	3.90836	3.96163	4.01767	4.0733	4.12543	4.17531	4.22011	4.26523	4.28	4.30044	4.31933	4.32968	4.33367	4.33708	4.34213	4.33617	4.3273	4.31279	4.30687	4.2863	4.24165	4.18267	4.11782	4.04895	3.9781	3.90598	3.83743	3.77451	3.71957	3.6755	3.6376	3.71792	3.72034	3.73428	3.7578	3.79004	3.82707	3.86578	3.93127	3.97572	3.99646	4.01761	4.00573	3.99234	3.96944	3.94106	3.91137	3.88445	3.86847	3.83955	3.85247	3.89464	3.93973	3.98685	4.03955	4.08788	4.13901	4.19139	4.22886	4.2525	4.2505	4.24114	4.23622	4.21651	4.19347	4.16836	4.13465	4.09419	4.04961	3.98818	3.88717	3.84787	4.15149	4.23236	4.34829	4.37334	4.1498	4.10547	4.08408	4.07624	4.0804	4.09366	4.11459	4.15589	4.22707	4.41183	4.43716	4.43853	4.44868	4.48144	4.50776	4.53927	4.57023	4.55345	4.46556	4.38486	4.32557	4.25049	4.13375	4.05301	3.99681	3.94317	4.10072	4.08937	4.07196	4.03258	4.07839	4.14092	4.22649	4.32331	4.41914	4.48214	4.5437	4.60233	4.65884	4.64864	4.62573	4.56985	4.50199	4.44595	4.34705	4.26778	4.20761	4.16244	4.1069	4.11797	4.18358	4.2523	4.34561	4.42041	4.47924	4.54252	4.5833	4.58293	4.5369	4.48325	4.42365	4.36013	4.25483	4.13038	4.00596	3.88317	3.7977	3.8287	3.89635	3.96988	4.0562	4.15789	4.24554	4.30236	4.30536	4.29168	4.27665	4.26552	4.23086	4.19511	4.15524	4.11606	4.06379	4.04604	4.02637	4.01847	4.03565	4.04035	4.0533	4.03816	4.02132	4.00072	3.9626	3.96143	3.96365	3.97128	3.97609	3.99156	4.02032	4.03193	4.0515	4.06312	3.99675	3.75387	3.54778	3.622	3.77506	3.96016	4.00646	4.00654	4.00119	4.00705	3.97686	3.93019	3.88386	3.84348	3.82194	3.80001	3.78904	3.7774	3.76953	3.76498	3.76018	3.76018	3.75704	3.75952	3.7564	3.75897	3.75341	3.75916	3.75321	3.74568	3.74505	3.74184	3.71689	3.72902	3.75043	3.75881	3.76825	3.7787	3.78935	3.8027	3.82448	3.83938	3.85203	3.86582	3.87783	3.89025	3.90064	3.91258	3.92357	3.9352	3.9469	3.95897	3.96966	3.95909	3.94798	3.93718	3.94544	3.9534	3.96354	3.97595	4.00174	4.00531	4.00693	4.01123	4.01127	4.02497	4.02806	4.03718	4.03821	4.04131	4.05451	4.05943	4.06018	4.06325	4.06251	4.06247	4.05989	4.05655	4.05247	4.03621	4.02947	4.02706	4.02226	4.02237	4.00315	4.01193	4.02528	4.03865	4.05525	4.07386	4.09344	4.14182	4.15446	4.17141	4.18456	4.20193	4.21603	4.22952	4.24203	4.25537	4.2668	4.28032	4.29254	4.30869	4.32175	4.3134	4.29996	4.2925	4.28505	4.27865	4.27282	4.2419	4.19837	4.16634	4.17076	4.19075	4.19775	4.25676	4.29004	4.30019	4.31688	4.32548	4.33777	4.34841	4.36197	4.37361	4.38804	4.40212	4.41718	4.43334	4.45013	4.46923	4.48869	4.51156	4.53493	4.56255	4.59099	4.62426	4.65888	4.69836	4.74051	4.78735	4.83875	4.9147	4.98237	5.05266	5.12067	5.20187	5.2805	5.36521	5.45236	5.54163	5.63039	5.72491	5.81935	5.9194	6.02166	6.11503	6.22339	6.33867	6.45796	6.57951	6.70702	6.83874	6.97825	7.12036	7.3072	7.50625	7.71539	7.96473	8.27937	8.71107	9.18042	9.72519	10.3765	11.1156	11.9393	12.8804	13.9218	15.1169	16.568	18.2871	20.1962	22.7387	25.4094	29.3761	34.1405	41.2934	52.2535	61.3697	74.6944	92.8682	114.33	136.918	158.319	162.235	146.713	128.506	98.5106	87.0995	66.7638	54.5645	45.0789	36.9552	31.2455	26.8918	23.6908	21.2338	18.9131	17.0933	14.557	12.8806	11.6456	11.0423	10.8491	10.2972	9.74821	8.63554	8.20907	7.97319	7.83634	7.69877	7.58119	7.44774	7.14356	6.88615	6.63751	6.42461	6.2327	6.06281	5.9317	5.81976	5.71938	5.63451	5.55896	5.50581	5.42323	5.33039	5.25247	5.19039	5.10664	5.10862	5.09361	5.04367	4.99773	4.95315	4.91034	4.83105	4.76977	4.71921	4.70158	4.66805	4.66378	4.69022	4.69163	4.69568	4.6987	4.70539	4.68893	4.68914	4.68272	4.65256	4.61074	4.57937	4.51321	4.489	4.45895	4.4328	4.403	4.3762	4.34731	4.32583	4.31116	4.30403	4.30556	4.36207	4.38972	4.42815	4.4661	4.4736	4.50265	4.51789	4.45042	4.33805	4.23773	4.08372	3.66037	3.63565	3.66509	3.7172	3.80646	3.97589	4.02578	4.07947	4.01569	3.9895	3.99495	3.98267	3.95873	3.92039	3.90138	3.90244	3.98685	4.02923	4.0283	4.01758	3.99448	3.96721	3.97293	3.99094	4.01108	4.02211	3.99716	3.92162	3.83106	3.7389	3.76155	3.7749	3.77677	3.76969	3.75691	3.75219	3.7502	3.7385	3.76582	3.80162	3.84371	3.86882	3.87747	3.89688	3.91754	3.93062	3.94821	3.96528	3.97817	3.97025	3.95989	3.94903	3.93507	3.9214	3.88972	3.84574	3.80379	3.76325	3.73725	3.69582	3.69521	3.69878	3.6995	3.72443	3.76398	3.84289	3.85734	3.86133	3.81898	3.78492	3.74541	3.66706	3.66933	3.6698	3.67454	3.68453	3.81226	3.85346	3.90888	3.95114	4.00551	4.0236	4.01165	3.9912	3.97629	3.95377	3.93508	3.91523	3.89117	3.85943	3.83359	3.80222	3.77538	3.75164	3.71033	3.65727	3.60288	3.55271	3.49717	3.44069	3.37727	3.31489	3.26383	3.19929	3.21246	3.25597	3.33797	3.38537	3.45259	3.51414	3.59325	3.65789	3.71234	3.76174	3.77679	3.70348	3.64989	3.58931	3.51867	3.47008	3.4116	3.36015	3.31949	3.26896	3.24944	3.29529	3.34538	3.40011	3.46397	3.52915	3.59499	3.61637	3.62811	3.64196	3.66241	3.68048	3.694	3.74784	3.74827	3.75295	3.76616	3.76676	3.77153	3.76979	3.76722	3.76786	3.76142	3.73838	3.68299	3.58508	3.55536	3.52988	3.50627	3.49106	3.53392	3.54769	3.55675	3.57638	3.59759	3.61591	3.63931	3.66102	3.68557	3.70966	3.73486	3.76017	3.76772	3.76802	3.76369	3.76616	3.76279	3.78554	3.7943	3.79512	3.80528	3.81312	3.82349	3.83377	3.84451	3.85704	3.86826	3.84457	3.84403	3.83425	3.83652	3.84363	3.84763	3.87448	3.90042	3.92861	3.96011	4.02726	4.08243	4.1167	4.13623	4.14571	4.13248	4.10785	4.07359	4.01841	3.9383	3.84639	3.74917	3.65999	3.57534	3.54402	3.48159	3.40575	3.47608	3.57793	3.6734	3.779	3.88972	3.9313	3.98316	4.02512	3.99989	3.96944	3.94143	3.91206	3.89228	3.87068	3.84734	3.83094	3.80992	3.79425	3.76737	3.71654	3.64793	3.56761	3.50309	3.5053	3.45805	3.44423	3.42428	3.44414	3.46387	3.49488	3.59127	3.66074	3.72845	3.78168	3.85289	3.88913	3.90928	3.91214	3.91934	3.92813	3.9324	3.93786	3.93781	3.92224	3.90526	3.87591	3.86171	3.84316	3.82833	3.82098	3.8101	3.79809	3.7854	3.8097	3.80449	3.81898	3.79769	3.7806	3.73421	3.68627	3.63161	3.58384	3.53355	3.42959	3.42005	3.40835	3.41284	3.42168	3.48284	3.53232	3.58239	3.64407	3.69262	3.74512	3.7891	3.83969	3.87847	3.92369	3.92716	3.93276	3.9304	3.92993	3.93385	3.93261	3.93699	3.93978	3.94467	3.9475	3.9533	3.95688	3.96381	3.96893	3.97724	3.98414	3.99326	4.00125	4.01059	4.02556	4.03726	4.04508	4.04861	4.0522	4.05383	4.05701	4.05531	4.04561	4.02826	4.00097	3.9394	3.89457	3.8435	3.80007	3.91752	3.86788	3.82232	3.77242	3.72966	3.68351	3.6459	3.60765	3.57752	3.49857	3.37904	3.63173	3.67227	3.7111	3.76681	3.68538	3.7053	3.72283	3.76191	3.81854	3.86573	3.88036	3.86452	3.85557	3.85911	3.8091	3.80218	3.80488	3.80251	3.80131	3.79166	3.79804	3.78487	3.75855	3.78007	3.78982	3.80993	3.83137	3.85174	3.86435	3.88546	3.91553	3.8904	3.89089	3.88797	3.88102	3.88626	3.88875	3.87377	3.86428	3.86191	3.85263	3.85042	3.84974	3.8643	3.86219	3.86347	3.86333	3.86005	3.85447	3.8469	3.83897	3.83002	3.82079	3.81164	3.80689	3.79812	3.79273	3.78483	3.78092	3.76987	3.77105	3.78672	3.78187	3.7798	3.77732	3.77843	3.77473	3.71833	3.65524	3.58962	3.5269	3.47685	3.42421	3.37665	3.34809	3.40442	3.4484	3.50216	3.57308	3.6509	3.67592	3.70566	3.74196	3.80046	3.85409	3.9107	3.93378	3.94812	3.95243	3.95077	3.80256	3.56042	3.26016	2.54507	2.96568	3.8829	3.84515	3.81905	3.79448	3.79961	3.81887	3.86017
0	-20	2.9453	3.31357	3.72562	3.94411	4.0255	4.14118	4.22947	4.24864	4.24197	4.21182	4.18292	4.1859	4.17447	4.17243	4.18039	4.19823	4.21672	4.28544	4.32575	4.34851	4.34427	4.35184	4.34619	4.33281	4.33106	4.33637	4.32988	4.30733	4.28883	4.29234	4.28388	4.28319	4.25479	4.22501	4.1996	4.0881	4.02836	4.01924	4.06099	4.12363	4.19181	4.15841	4.1539	4.1361	4.09993	4.10678	4.13514	4.17549	4.23509	4.29275	4.38298	4.41776	4.41304	4.37353	4.31453	4.25515	4.18699	4.18451	4.19815	4.16902	4.10088	4.06782	4.05916	4.02102	3.98656	3.99252	3.99472	3.97732	3.98489	3.98296	4.01182	4.02554	4.06349	4.101	4.13053	4.16852	4.22997	4.27049	4.27709	4.2762	4.25817	4.26366	4.28022	4.28011	4.29815	4.25213	4.21523	4.17929	4.16062	4.13511	4.13338	4.13976	4.16711	4.15215	4.15191	4.14253	4.10883	4.10818	4.09467	4.10857	4.13275	4.14676	4.15104	4.16069	4.19571	4.17542	4.14833	4.13508	4.12688	4.07022	4.01496	3.97137	3.99544	4.07941	4.04819	4.04483	4.03315	3.97689	3.90772	3.88041	3.84305	3.84506	3.86561	3.94404	3.98988	4.048	4.12133	4.16424	4.14592	4.13871	4.14916	4.15544	4.12624	4.07513	4.01285	3.91811	3.85973	3.74822	3.66346	3.72771	3.72453	3.76054	3.90834	3.94424	3.97178	4.01681	4.09184	4.12029	4.13451	4.16855	4.17118	4.1432	4.13498	4.12432	4.08537	4.02961	3.97087	3.93824	3.90584	3.88357	3.87393	3.88617	3.9124	3.90768	3.93112	3.96237	4.01886	4.05053	4.08017	4.08653	4.07491	4.02542	3.97425	3.94598	3.91116	3.89637	3.92289	3.96297	3.99663	4.06878	4.15157	4.20651	4.18538	4.16775	4.14673	4.12753	4.13038	4.13039	4.19294	4.2247	4.2833	4.34141	4.42083	4.45533	4.36486	4.31398	4.25334	4.17599	4.06289	3.9217	3.84031	3.81998	3.82061	3.84763	3.90023	3.94024	3.9971	4.00809	3.99524	3.90873	3.87818	3.89937	3.94529	4.04123	4.08905	4.15174	4.22276	4.30505	4.40375	4.4705	4.51605	4.54239	4.56254	4.57622	4.60173	4.65226	4.7017	4.72768	4.75154	4.74689	4.72121	4.68677	4.68225	4.65215	4.5751	4.51882	4.45882	4.38376	4.32663	4.2412	4.15889	4.08644	4.04412	4.00901	4.00207	4.03804	4.10625	4.16465	4.22331	4.30496	4.37352	4.45563	4.4088	4.29269	4.20279	4.14202	4.08499	4.02498	4.02678	4.11364	4.16092	4.15363	4.1427	4.14598	4.16942	4.18141	4.20104	4.21428	4.23002	4.24876	4.24888	4.23033	4.17267	4.11307	4.06256	4.02223	4.02204	4.08562	4.08754	4.04969	4.00961	3.98111	3.97513	3.98049	4.00294	4.03431	4.08358	4.12395	4.15502	4.16693	4.11476	4.06085	4.01861	3.98853	3.96905	3.98341	3.98398	3.98259	3.97052	3.94772	3.92973	3.8995	3.90288	3.86555	3.84703	3.89807	3.93316	3.97286	3.96029	3.92129	3.89021	3.88348	3.90197	3.93723	3.97566	4.03301	4.12932	4.13126	4.09716	3.98278	3.94126	3.93773	3.97079	3.98377	4.01412	4.06804	4.17836	4.15483	4.09379	4.02369	3.91601	3.87061	3.84117	3.81333	3.75334	3.71005	3.69121	3.6251	3.55451	3.52349	3.52806	3.54269	3.65704	3.64699	3.64332	3.63957	3.64292	3.68558	3.70568	3.75045	3.88752	3.99684	4.06435	4.09435	4.09658	4.10259	4.08266	4.09096	3.99979	3.90006	3.87218	3.85409	3.82735	3.80944	3.82728	3.88324	3.93666	3.96936	4.01727	4.09343	4.15219	4.20119	4.26372	4.26366	4.18307	4.09378	4.05001	4.01749	4.16279	4.09775	4.03303	3.99006	3.96858	3.93875	3.93702	3.93032	3.96888	3.97912	4.01793	4.05498	4.09095	4.16573	4.27047	4.29607	4.37809	4.43124	4.4552	4.44534	4.40271	4.30633	4.19575	4.08555	3.9807	3.88303	3.85398	3.86467	4.02803	4.05368	4.10471	4.14245	4.15056	4.17406	4.32281	4.40698	4.44537	4.47939	4.48562	4.42694	4.3647	4.34344	4.3219	4.34916	4.35725	4.36189	4.38693	4.43629	4.44001	4.44853	4.47601	4.50126	4.5424	4.58281	4.63886	4.70385	4.74862	4.78888	4.78564	4.7632	4.73184	4.74782	4.76986	4.75986	4.73843	4.74311	4.76284	4.80485	4.79683	4.77053	4.77363	4.91143	5.07454	5.25907	5.44398	5.65557	5.81923	5.89819	5.99205	6.09597	6.17524	6.21767	6.25617	6.18074	6.24738	6.35475	6.50572	6.71313	6.92727	7.10372	7.32323	7.50608	7.74002	7.98667	8.28794	8.64404	9.05778	9.48776	10.0903	10.7043	11.3345	12.1254	12.9435	13.9058	14.9751	16.3603	17.8313	19.2923	20.8471	22.8853	28.3862	28.2714	32.9385	40.8425	49.1229	58.3465	72.2417	87.7415	107.761	141.96	169.125	188.765	204.955	204.479	177.276	161.708	121.634	96.5727	75.2486	67.3322	55.1053	42.0924	38.6185	34.2948	30.0629	25.0996	22.2306	19.8001	17.8587	16.156	14.92	14.1618	13.4266	12.1167	11.2067	10.7149	10.1767	9.59597	9.19046	8.81534	8.50694	8.27704	8.02557	7.80894	7.63895	7.45136	7.33227	7.15044	7.03724	6.85419	6.71184	6.51375	6.30127	6.09995	5.95789	5.81306	5.67618	5.54866	5.45993	5.36451	5.31045	5.25177	5.20228	5.15158	5.09661	5.02017	4.97126	4.91064	4.89864	4.87925	4.84932	4.85791	4.89787	4.92331	4.92498	4.87028	4.9159	4.90592	4.8484	4.82206	4.79257	4.7501	4.81892	4.87464	4.88457	4.86854	4.68345	4.55192	4.43571	4.33706	4.30141	4.2982	4.29785	4.26289	4.26539	4.2689	4.31247	4.32808	4.32871	4.30322	4.22901	4.18408	4.10977	4.00949	3.89779	3.82954	3.81016	3.76054	3.7219	3.6784	3.60779	3.53843	3.51573	3.51347	3.55316	3.63783	3.6936	3.74156	3.80447	3.8483	3.92938	4.00198	4.06705	4.08457	4.09425	4.09903	4.05015	4.00935	3.95912	3.87322	3.81657	3.72772	3.67703	3.66604	3.66226	3.64246	3.68349	3.72233	3.74771	3.75396	3.76344	3.77582	3.81	3.78993	3.80275	3.80834	3.81363	3.83316	3.86601	3.91746	3.95834	3.98673	3.99692	3.99317	4.00266	3.98076	3.98055	3.97224	3.93547	3.90956	3.86954	3.8594	3.85084	3.8344	3.84593	3.85382	3.85282	3.7859	3.74035	3.70719	3.68249	3.64658	3.60356	3.61454	3.66232	3.69539	3.70033	3.66392	3.74286	3.74248	3.71691	3.68897	3.67716	3.65868	3.62035	3.58025	3.51346	3.40367	3.37043	3.37258	3.39838	3.47906	3.58118	3.69098	3.7446	3.81272	3.94329	4.01231	4.05745	4.06564	4.04255	3.97825	3.96066	3.83881	3.71749	3.5843	3.45798	3.37884	3.35373	3.44076	3.62321	3.77569	3.92272	4.01128	4.03811	4.07111	4.09163	4.02503	3.94573	3.9442	3.89311	3.90381	3.8816	3.85996	3.82569	3.80535	3.79205	3.73098	3.67497	3.62037	3.627	3.64567	3.66349	3.65893	3.68544	3.72248	3.71531	3.7607	3.80606	3.85337	3.89329	3.90892	3.91102	3.91207	3.90656	3.81875	3.69207	3.57771	3.53257	3.47383	3.44396	3.39365	3.36165	3.30791	3.32804	3.42117	3.54221	3.68964	3.74534	3.74565	3.74744	3.76688	3.79144	3.79745	3.80853	3.81993	3.82433	3.84262	3.83467	3.83182	3.78099	3.77213	3.75755	3.76859	3.77044	3.79382	3.83445	3.76014	3.71815	3.65005	3.62716	3.74365	3.74715	3.67871	3.63313	3.63369	3.60223	3.57088	3.58636	3.63587	3.68817	3.67588	3.6754	3.72864	3.75986	3.81609	3.83879	3.80049	3.78409	3.75059	3.72189	3.71359	3.73567	3.75177	3.83504	3.88282	3.86641	3.90489	3.93635	3.93864	3.93085	3.89146	3.88425	3.76109	3.68041	3.65197	3.74989	3.88285	3.9674	3.96791	3.94047	3.92508	3.88756	3.87168	3.85181	3.82032	3.77488	3.72437	3.7447	3.77923	3.83612	3.90041	3.92935	3.95793	3.97216	4.0422	4.04465	4.0616	4.03898	4.00709	3.97836	3.95516	3.94443	3.92198	3.91898	3.92358	3.91185	3.88867	3.87754	3.85089	3.83698	3.82692	3.79523	3.76144	3.75426	3.73981	3.7048	3.68505	3.68412	3.68564	3.68873	3.6943	3.72076	3.72259	3.76858	3.78785	3.82683	3.84498	3.86971	3.89021	3.92412	3.94244	3.95229	3.92452	3.90945	3.90056	3.88005	3.8699	3.85179	3.87411	3.87354	3.86934	3.87486	3.86853	3.85401	3.83295	3.8723	3.92587	3.97739	4.04163	4.06291	4.05863	4.07258	4.08212	4.0713	4.03751	4.02302	4.05696	4.07742	4.10906	4.12353	4.11908	4.13216	4.12735	4.12801	4.10715	4.07211	4.04534	4.03216	4.00818	3.99149	3.97358	3.97906	3.9733	3.94824	3.9172	3.86371	3.8294	3.8366	3.84037	3.86044	3.88344	3.91905	3.95846	3.99766	4.0188	4.03738	4.0379	4.02645	3.95304	3.80799	3.6791	3.55387	3.42184	3.32106	3.2869	3.23856	3.23376	3.25549	3.29549	3.38442	3.48296	3.55304	3.59141	3.63324	3.68178	3.7166	3.72803	3.73289	3.77422	3.81339	3.80842	3.8143	3.82228	3.83374	3.85406	3.82039	3.786	3.75498	3.6702	3.60037	3.51947	3.42827	3.375	3.42517	3.47277	3.54621	3.65961	3.7352	3.90013	4.03868	4.08732	4.10043	4.09788	4.07689	4.03888	4.00392	3.99656	3.98453	3.89386	3.82116	3.7525	3.68891	3.69297	3.71469	3.69445	3.71474	3.72218	3.74578	3.80959	3.80505	3.82558	3.8984	3.91354	3.91421	3.89974	3.86911	3.87152	3.79552	3.72705	3.70763	3.72736	3.74393	3.77658	3.82614	3.90505	3.98314	3.99516	4.01191	4.01085	4.0156	4.00359	4.01767	4.02964	4.00722	3.99862	3.95218	3.91133	3.85254	3.80462	3.84126	3.78405	3.65654	3.65676	3.73138	3.77193	3.75458	3.72877	3.71203	3.68834	3.72855	3.83415	3.80387	3.78219	3.78966	3.80259
0	0	4.50362	4.63934	4.46812	4.39069	4.32648	4.27262	4.23433	4.1909	4.16018	4.1272	4.09976	4.04801	4.01331	3.96799	3.93591	3.90474	3.88969	3.87416	3.86981	3.87288	3.89512	3.9277	3.96085	3.9905	4.02637	4.07033	4.11567	4.17209	4.22205	4.28846	4.3067	4.32716	4.34128	4.2556	4.21526	4.16763	4.13364	4.09072	4.02642	4.00197	3.66116	3.7117	3.86067	4.04657	4.13022	4.22636	4.2714	4.29815	4.29047	4.20929	4.08465	3.98051	3.87123	3.74809	3.63542	3.55813	3.48856	3.49174	3.49434	3.50994	3.52681	3.54692	3.57194	3.59983	3.6293	3.66249	3.69359	3.72998	3.76361	3.80155	3.8371	3.87466	3.90966	3.90341	3.85019	3.7976	3.74986	3.69176	3.73888	3.80112	3.84851	3.91999	3.98053	4.03852	4.0259	4.00858	3.98414	3.9665	3.93865	3.91604	3.88792	3.85072	3.82221	3.79277	3.77231	3.74944	3.7345	3.72073	3.71268	3.74673	3.75253	3.80736	3.85847	3.92052	3.95749	4.00121	4.03017	4.05334	4.08558	4.10857	4.13196	4.14435	4.15978	4.18488	4.17104	4.1493	4.10095	4.0614	4.03269	4.00489	3.9633	3.94884	3.93374	3.9263	3.9188	3.94762	3.97113	3.98428	3.9922	3.98924	3.99228	3.98674	3.98037	3.97677	3.94995	3.93576	3.88856	3.86293	3.82357	3.78471	3.74647	3.72203	3.70193	3.69971	3.69617	3.71934	3.74698	3.99514	4.1686	4.20298	4.19426	4.18736	3.81232	3.61092	3.51773	3.50048	3.48692	3.48874	3.49165	3.50111	3.52267	3.54321	3.57372	3.60203	3.61754	3.64891	3.70542	3.75473	3.81273	3.86475	3.92175	3.97314	4.02633	4.0744	4.12069	4.16225	4.19818	4.22611	4.23709	4.2533	4.25659	4.27391	4.2469	4.16294	4.05292	3.95406	3.85942	3.7539	3.67343	3.55852	3.4918	3.46897	3.58761	3.64125	3.73896	3.79832	3.87188	3.9485	4.0022	4.03297	4.00621	3.98603	3.94385	3.91485	3.87745	3.83926	3.80357	3.76782	3.73994	3.70548	3.66884	3.69099	3.7334	3.77947	3.81502	3.87662	3.93073	3.97649	4.00445	4.03126	4.03142	4.01403	3.8364	3.736	3.60898	3.4745	3.35487	3.24522	3.146	3.16486	3.34932	3.54413	3.75781	3.97893	4.14516	4.27016	4.33043	4.38347	4.38316	4.37927	4.37909	4.37881	4.36622	4.33953	4.31593	4.29294	4.25306	4.21542	4.1797	4.14605	4.11352	4.08332	4.05432	4.02767	4.0035	3.98093	3.96254	3.94425	3.93072	3.91645	3.90672	3.89578	3.88869	3.88038	3.87465	3.86818	3.86252	3.85706	3.85078	3.84611	3.83935	3.83812	3.83071	3.83087	3.81934	3.8178	3.81798	3.81761	3.81988	3.82114	3.82551	3.82843	3.83464	3.84095	3.84872	3.85762	3.86568	3.87519	3.88246	3.89099	3.89674	3.90393	3.93553	3.9312	3.93061	3.9232	3.91898	3.90831	3.90008	3.88588	3.87219	3.85484	3.83633	3.81699	3.79497	3.77542	3.75204	3.72888	3.68278	3.63677	3.57834	3.55293	3.52897	3.50939	3.56919	3.59561	3.6327	3.68521	3.76584	3.83547	3.89497	3.98435	4.03658	4.07069	4.10982	4.05511	4.02353	3.98604	3.94649	3.92174	3.90246	3.89441	3.94847	3.91275	3.87784	3.8414	3.80332	3.7708	3.73684	3.72648	3.71058	3.69366	3.68532	3.6705	3.65658	3.64737	3.63547	3.63296	3.62527	3.62299	3.6337	3.59658	3.63467	3.67786	3.72575	3.7728	3.82992	3.93023	3.99235	3.98464	4.00232	4.0284	3.99342	3.96331	3.929	3.94408	3.93439	3.92746	3.9196	3.9248	4.04698	4.16085	4.17312	4.17157	4.17141	4.15808	4.18874	4.21123	4.24354	4.14312	4.11574	4.19733	4.28741	4.30115	4.28894	4.23598	4.15779	4.076	4.00124	3.93257	3.86622	3.81807	3.77111	3.80537	3.82549	3.8663	3.89636	3.93942	3.98463	4.02906	4.0796	4.12714	4.17905	4.23243	4.28159	4.33092	4.36417	4.39367	4.40041	4.38623	4.3736	4.35921	4.34527	4.3213	4.29932	4.27273	4.24413	4.21847	4.19792	4.18485	4.16991	4.17927	4.21012	4.31183	4.37341	4.41815	4.46588	4.51946	4.56715	4.6199	4.66388	4.71946	4.76195	4.74498	4.73868	4.72884	4.71122	4.62984	4.55291	4.47729	4.42238	4.35996	4.47834	4.58539	4.72292	4.85809	5.01472	5.15463	5.32826	5.49763	5.45816	5.53505	5.61717	5.69977	5.76983	5.76855	5.73417	5.69717	5.67322	5.68125	6.15832	6.35954	6.65401	6.84983	6.89064	7.00509	7.16941	7.38467	7.64424	7.95369	8.31078	9.29215	9.75836	10.0929	10.431	10.8318	11.2776	11.8298	12.5178	13.3693	14.4184	15.6938	17.2347	19.1925	21.4413	23.7771	26.2884	29.5386	33.6735	39.8769	44.186	50.9272	64.1591	77.5963	93.8823	120.729	154.157	181.17	219.884	236.884	238.596	218.377	181.702	146.844	118.585	95.8314	73.6182	61.2994	51.3268	43.8629	37.8383	32.4945	28.3971	25.2818	22.8462	21.0324	19.2637	17.4749	15.8715	14.2935	13.4355	12.7604	12.0765	11.3876	10.7859	10.2647	9.85108	9.49809	9.09518	8.71553	8.36189	8.03529	7.72694	7.44612	7.18208	6.94613	6.72525	6.52636	6.34714	6.19158	6.05764	5.92149	5.85214	5.80428	5.76559	5.73837	5.72105	5.70794	5.64705	5.59857	5.54503	5.50618	5.44003	5.34695	5.26711	5.18239	5.10056	5.01916	4.93599	4.84716	4.72527	4.62293	4.48008	4.41142	4.3528	4.35214	4.33861	4.33087	4.33299	4.32677	4.33434	4.33432	4.3189	4.29548	4.28254	4.2799	4.34009	4.27449	4.29558	4.30651	4.32848	4.35484	4.37538	4.40617	4.43009	4.39806	4.25471	4.19818	4.15039	4.114	4.0915	4.06691	4.05512	4.05367	3.96122	3.85858	3.75413	3.69877	3.65323	3.60901	3.61061	3.5989	3.59198	3.58795	3.58505	3.5822	3.58124	3.58098	3.58007	3.58052	3.57838	3.57819	3.57388	3.57206	3.56462	3.56022	3.54911	3.54192	3.52752	3.51167	3.48969	3.46592	3.4478	3.43304	3.4155	3.40072	3.38416	3.36915	3.3532	3.33863	3.30868	3.29951	3.29062	3.28409	3.27729	3.2732	3.26837	3.26643	3.26614	3.26739	3.27009	3.27418	3.27954	3.28608	3.29366	3.30221	3.31158	3.32164	3.33225	3.34274	3.35309	3.36313	3.37352	3.38243	3.3915	3.39868	3.4066	3.41416	3.42152	3.43007	3.43785	3.44603	3.45305	3.46038	3.46647	3.47245	3.47737	3.48171	3.48384	3.48575	3.48668	3.48597	3.48365	3.47991	3.47557	3.46881	3.46276	3.4542	3.44768	3.43883	3.43229	3.42385	3.41766	3.41033	3.40477	3.39924	3.39436	3.40124	3.39411	3.39163	3.38342	3.3799	3.37022	3.36446	3.35343	3.34517	3.33351	3.3226	3.3113	3.29856	3.29032	3.27963	3.2773	3.27217	3.27892	3.28406	3.30292	3.32611	3.45584	3.51456	3.58775	3.65081	3.68411	3.68174	3.42494	3.44113	3.46833	3.50061	3.53547	3.57015	3.59534	3.6063	3.60851	3.60062	3.61229	3.63004	3.64534	3.65412	3.66481	3.68121	3.65333	3.64844	3.59661	3.54996	3.50158	3.45753	3.41374	3.37413	3.33902	3.30592	3.2794	3.25646	3.22754	3.22714	3.21154	3.18618	3.23476	3.28691	3.32682	3.35281	3.38911	3.42013	3.46226	3.50516	3.5528	3.56991	3.57661	3.58136	3.591	3.59688	3.61204	3.6254	3.64317	3.66522	3.67717	3.70328	3.72837	3.72564	3.56672	3.58279	3.60388	3.62507	3.65973	3.69226	3.72234	3.70027	3.67998	3.65317	3.63331	3.62813	3.61689	3.61831	3.62019	3.64413	3.64348	3.66586	3.71229	3.78308	3.86161	3.93179	3.98209	3.91502	3.59599	3.43297	3.33155	3.35009	3.41741	3.43581	3.45018	3.45837	3.46172	3.46165	3.45595	3.44734	3.44284	3.41212	3.41006	3.40572	3.40264	3.40073	3.40049	3.40462	3.40706	3.4201	3.43122	3.45273	3.46252	3.47181	3.47799	3.48843	3.48645	3.48401	3.48131	3.48053	3.48011	3.4806	3.48151	3.48319	3.48528	3.48822	3.49189	3.49623	3.50172	3.47733	3.4518	3.50869	3.5227	3.53546	3.551	3.56518	3.58193	3.59739	3.6149	3.63143	3.64914	3.68305	3.70029	3.71547	3.73081	3.74413	3.75697	3.76809	3.77787	3.78565	3.76986	3.75528	3.73883	3.71938	3.70736	3.69016	3.66233	3.66919	3.67666	3.68076	3.69436	3.69931	3.69687	3.70014	3.70192	3.7057	3.71171	3.71631	3.72625	3.73097	3.77524	3.78557	3.80225	3.81227	3.82618	3.83535	3.84645	3.85438	3.88479	3.88603	3.88968	3.87904	3.86983	3.86026	3.84625	3.83442	3.81908	3.80368	3.79257	3.76766	3.7581	3.74125	3.72234	3.69439	3.67307	3.65572	3.62807	3.60494	3.5806	3.56368	3.5471	3.52706	3.51359	3.50784	3.50084	3.51476	3.51059	3.505	3.5018	3.49914	3.49664	3.50013	3.50093	3.50596	3.47809	3.52322	3.57228	3.6283	3.68413	3.75608	3.83044	3.92982	3.89095	3.8711	3.83793	3.84633	3.80946	3.83333	3.82019	3.83107	3.80574	3.78351	3.75963	3.73854	3.6766	3.61972	3.56288	3.51585	3.47619	3.43362	3.41534	3.3948	3.41645	3.44202	3.47419	3.50356	3.5417	3.58393	3.62389	3.67537	3.67646	3.67341	3.68114	3.67867	3.67235	3.67004	3.66517	3.66274	3.65916	3.64044	3.62905	3.62595	3.62029	3.62064	3.61392	3.6119	3.60438	3.61239	3.63205	3.63606	3.66411	3.69331	3.72418	3.75849	3.78903	3.81352	3.81411	3.80939	3.81009	3.8039	3.78409	3.75475	3.72864	3.71719	3.67993	3.64627	3.6139	3.58493	3.59029	3.56257	3.58532	3.60579	3.60249	3.56244	3.51273	3.47227	3.43413	3.39462	3.36268	3.3253	3.29691	3.26231	3.30377	3.29356	3.30521	3.30808	3.30818	3.31439	3.31636	3.32698	3.33354	3.3484	3.36077	3.37982	3.39848	3.42159	3.44567	3.47228	3.49646	3.48278
0	20	4.50503	4.56669	4.61949	4.66434	4.69883	4.53791	4.38798	4.26073	4.15626	4.06046	3.98575	3.92077	3.87381	3.83646	3.80601	3.76454	3.75451	3.73982	3.75104	3.77199	3.79164	3.82535	3.85522	3.89385	3.93197	3.97201	4.01372	4.0504	4.09159	4.12639	4.16108	4.20877	4.17527	4.12263	4.04793	3.97864	3.90458	3.80716	3.77225	3.73696	3.67265	3.62281	3.56229	3.66036	3.74341	3.84103	3.94415	4.03779	4.14208	4.21409	4.28797	4.34242	4.39581	4.43144	4.44015	4.37197	4.28736	4.1878	4.09129	3.98619	3.88095	3.77514	3.68279	3.59545	3.50706	3.52995	3.50527	3.55301	3.6101	3.68575	3.76863	3.85569	3.91998	3.93567	3.95214	3.96063	3.97337	3.9298	3.88326	3.8343	3.79271	3.74052	3.69112	3.65038	3.62035	3.63175	3.64497	3.71811	3.79333	3.87218	3.97222	4.09562	4.1531	4.17326	4.16735	4.16194	4.09984	4.02684	3.96032	3.93507	3.95882	3.9777	4.00263	4.00929	3.96257	3.91636	3.86696	3.83774	3.8156	3.82743	3.84655	3.8849	3.91663	3.96037	3.99907	4.01367	4.02562	4.04326	4.05639	4.07568	4.0904	4.10022	4.07596	4.04323	4.01641	3.99993	3.9514	3.96268	3.97135	4.00113	4.02935	4.06338	4.10111	4.13895	4.20222	4.21827	4.23519	4.25847	4.21786	4.20271	4.17658	4.15633	4.12119	4.06252	4.01756	3.97701	3.93947	3.94258	3.93806	3.93984	3.94597	3.92595	3.90438	3.87171	3.90979	3.94127	3.96545	3.96661	3.97117	3.97585	3.98298	3.9905	4.00492	4.02651	4.04245	4.05133	4.06553	4.07266	4.08138	4.07656	4.06578	4.0767	4.08558	4.09771	4.11388	4.10761	4.08721	4.07344	4.09218	4.12367	4.16381	4.21672	4.2645	4.31895	4.35201	4.3708	4.38212	4.36712	4.3639	4.35332	4.32465	4.23826	4.17005	4.10969	3.9998	3.88626	3.79051	3.69144	3.73711	3.83279	3.93819	4.06041	4.17204	4.27231	4.40293	4.49364	4.47985	4.45264	4.41651	4.36882	4.32507	4.27771	4.23033	4.15472	4.02067	3.91057	3.81655	3.81536	3.85127	3.8729	3.86507	3.86326	3.92363	3.97802	4.04077	4.06145	4.06384	4.05407	4.05468	4.04437	4.04261	4.03187	4.02794	3.96891	3.99092	4.0146	4.04037	4.06955	4.04278	3.99659	3.92872	3.85115	3.82857	3.8425	3.88969	3.90693	3.94271	3.96328	3.99231	4.02396	4.05215	4.08684	4.11787	4.12403	4.1455	4.17985	4.1737	4.1591	4.1474	4.14546	4.12851	4.13371	4.10912	4.09464	4.07386	4.03398	4.03864	4.0357	4.03461	4.03754	4.04993	4.07203	4.09837	4.15476	4.19443	4.24039	4.26652	4.29088	4.30277	4.31549	4.29964	4.24805	4.16645	4.12643	4.04892	4.02543	4.00011	3.98081	4.01011	4.03445	4.06427	4.09115	4.13062	4.08914	4.033	3.97574	3.8845	3.80156	3.72302	3.61561	3.58632	3.56717	3.5999	3.63419	3.67262	3.72462	3.77693	3.83278	3.89691	3.90936	3.92053	3.93886	3.95637	3.94608	3.92857	3.92486	3.92442	3.92802	3.93215	3.93683	3.94369	3.95169	3.95503	3.93583	3.92367	3.90652	3.89459	3.87832	3.86772	3.85221	3.84103	3.37807	3.3338	3.79809	3.83735	3.84072	3.86406	3.89895	3.9162	3.91373	3.91188	3.81331	2.87542	2.99113	3.70325	4.03715	4.10087	4.16544	4.20154	3.78175	3.82761	3.63826	3.76509	3.83542	3.86886	3.89507	3.93169	3.96539	4.02921	4.06537	4.06953	4.06477	3.98741	3.9743	3.96162	3.98618	4.01896	4.05482	4.03867	3.98172	3.93446	3.89642	3.85926	3.72295	3.73544	3.76574	3.80269	3.86115	3.91492	3.96749	3.98341	4.03873	4.04674	4.05054	4.06046	4.04622	4.03987	4.03144	4.01751	3.99961	4.01036	4.03087	4.05109	4.10507	4.14545	4.18978	4.23327	4.28304	4.29786	4.30916	4.34441	4.36224	4.33139	4.3032	4.26993	4.24261	4.21865	4.20692	4.19036	4.2261	4.25125	4.28772	4.32483	4.36551	4.38884	4.41354	4.44326	4.47725	4.50643	4.54373	4.56477	4.55568	4.55148	4.54747	4.53053	4.51389	4.49636	4.48319	4.46542	4.45575	4.4498	4.45063	4.45139	4.47384	4.50058	4.53508	4.58528	4.64329	4.70733	4.75388	4.82817	4.87631	4.92891	4.94481	4.98679	5.05437	5.09936	5.14037	5.07435	5.03327	5.07236	5.2205	5.43346	5.61243	5.72078	5.84472	5.96726	6.06683	6.10829	6.19836	6.24434	6.24979	6.27006	6.29918	6.33814	6.38261	6.44611	6.52273	6.6733	6.82536	7.03295	7.26	7.52082	7.79877	8.09498	8.41861	8.76782	9.14339	9.54829	9.99159	10.4842	11.0528	12.0368	13.0657	14.5032	16.1018	18.1994	20.8561	24.2504	27.4775	31.6605	37.0981	43.011	50.4	62.8984	76.5969	93.2596	113.105	146.316	165.525	186.911	179.154	149.622	127.854	104.155	83.5922	68.6391	55.3675	46.3607	39.1833	33.5788	28.6605	24.8474	21.8794	19.8987	17.9757	16.8826	14.2026	13.0769	12.1012	11.27	10.5649	9.94255	9.40669	8.98674	8.61476	8.31139	8.05813	7.77812	7.4985	7.25488	7.03513	6.83187	6.65813	6.52958	6.41402	6.31538	6.23746	6.15706	6.08156	5.99992	5.89511	5.79107	5.64094	5.48536	5.32778	5.17141	4.97013	4.88469	4.81153	4.74715	4.74708	4.72489	4.70448	4.68847	4.67239	4.6585	4.6415	4.62496	4.60321	4.56032	4.55867	4.55322	4.53918	4.52889	4.51881	4.51846	4.50463	4.48833	4.47092	4.45531	4.4342	4.41734	4.40015	4.37969	4.35446	4.32564	4.29894	4.27141	4.24574	4.21847	4.1935	4.16547	4.14293	4.11966	4.09644	4.08971	4.08583	4.08322	4.0856	4.08576	4.08285	4.07613	4.07455	4.07004	4.06961	4.06679	4.06704	4.06442	4.01665	3.96969	3.9107	3.83227	3.81899	3.80966	3.79967	3.8215	3.83764	3.8477	3.86114	3.87192	3.88336	3.88682	3.87	3.8519	3.86687	3.86974	3.88844	3.90522	3.92177	3.92455	3.93287	3.93371	3.93922	3.93964	3.94531	3.94346	3.95376	3.94784	3.94258	3.93484	3.92602	3.91691	3.90322	3.89414	3.8806	3.85724	3.85445	3.8493	3.83732	3.81729	3.79454	3.77524	3.74651	3.73111	3.71021	3.69252	3.66772	3.66734	3.67452	3.68264	3.69494	3.76092	3.75902	3.74915	3.72986	3.71132	3.72951	3.74497	3.73524	3.68167	3.64409	3.60978	3.59145	3.56727	3.54672	3.52665	3.53089	3.56241	3.5714	3.54555	3.53487	3.54224	3.58522	3.61089	3.63749	3.71036	3.77711	3.77131	3.70135	3.66456	3.63315	3.60789	3.5901	3.57594	3.56012	3.55981	3.56608	3.57631	3.61272	3.64274	3.69548	3.74029	3.78712	3.84027	3.87954	3.92833	3.9661	3.97721	3.95144	3.93286	3.85703	3.824	3.84833	3.80597	3.7521	3.71488	3.69187	3.66629	3.71277	3.7216	3.74836	3.76875	3.82972	3.8169	3.80851	3.78709	3.77149	3.71175	3.66667	3.64091	3.5857	3.56807	3.54425	3.53246	3.51643	3.53078	3.54196	3.5815	3.64698	3.70727	3.78067	3.82574	3.82833	3.80998	3.82967	3.84995	3.87044	3.87535	3.90594	3.91134	3.93164	3.94435	3.96051	3.93467	3.88637	3.78018	3.67676	3.56214	3.45291	3.35702	3.23457	3.22737	3.33414	3.41247	3.45977	3.47444	3.50963	3.52482	3.59922	3.64466	3.69274	3.71643	3.74808	3.77489	3.80136	3.84432	3.85691	3.8668	3.86978	3.86708	3.87012	3.86599	3.85836	3.84704	3.83938	3.8423	3.84235	3.84679	3.8352	3.83601	3.83168	3.82974	3.82265	3.81337	3.80363	3.7909	3.78088	3.76841	3.75855	3.74699	3.73757	3.72755	3.71896	3.7111	3.70381	3.69867	3.69323	3.6913	3.68825	3.68695	3.6778	3.68152	3.68845	3.68558	3.70525	3.7311	3.75613	3.78636	3.81691	3.85084	3.88596	3.92238	3.96073	3.99815	4.03808	4.07464	4.11055	4.13345	4.15486	4.17003	4.20457	4.21608	4.21931	4.19272	4.14623	4.10069	4.06048	4.01719	3.96427	3.90767	3.86272	3.81959	3.82962	3.82819	3.83462	3.84215	3.83077	3.80919	3.79296	3.77628	3.76447	3.81136	3.80926	3.82708	3.83413	3.86245	3.86818	3.87453	3.87791	3.87826	3.85964	3.80944	3.75398	3.70887	3.6632	3.60749	3.57044	3.57535	3.60767	3.6325	3.66951	3.7113	3.70217	3.68648	3.67215	3.65701	3.64326	3.62908	3.61636	3.60376	3.59267	3.58253	3.57404	3.56755	3.5638	3.56262	3.56383	3.56716	3.57222	3.57862	3.59801	3.60186	3.60687	3.60983	3.61225	3.61399	3.61413	3.6128	3.61038	3.60873	3.60396	3.58668	3.59716	3.59434	3.59225	3.59091	3.59054	3.59105	3.59244	3.59477	3.59823	3.60284	3.60866	3.6159	3.62466	3.63598	3.64723	3.66032	3.67612	3.68682	3.67962	3.6693	3.6622	3.68712	3.72291	3.76383	3.80984	3.82634	3.8411	3.86334	3.87135	3.87658	3.87887	3.87814	3.85574	3.8565	3.85666	3.84394	3.82903	3.80953	3.79713	3.77972	3.76584	3.74912	3.73701	3.72265	3.71355	3.70317	3.69822	3.69353	3.69383	3.69535	3.70079	3.7079	3.71871	3.74327	3.74728	3.74563	3.7561	3.77492	3.78591	3.81343	3.84578	3.87508	3.91714	3.95224	3.89233	3.87875	3.83519	3.80014	3.76621	3.74578	3.75021	3.7823	3.79908	3.83975	3.87137	3.90851	3.94556	3.98355	4.01321	3.97217	3.93571	3.89961	3.85906	3.84897	3.82559	3.80856	3.78032	3.72593	3.66965	3.62227	3.63638	3.60965	3.60053	3.60204	3.58533	3.60184	3.61742	3.64146	3.66528	3.69485	3.72551	3.75703	3.79214	3.82131	3.85513	3.91726	3.90733	3.89868	3.88404	3.76911	3.70635	3.64614	3.6095	3.57119	3.54013	3.52791	3.51313	3.57754	3.60243	3.63043	3.66205	3.69887	3.73378	3.78112	3.80368	3.81621	3.81398	3.80864	3.66498	3.4632	3.13862
20	-20	3.21472	3.55427	3.82906	4.10268	4.06464	3.97062	3.86318	3.88833	3.92223	3.98032	4.06638	4.20014	4.35583	4.42427	4.43827	4.42292	4.40121	4.4562	4.44255	4.43568	4.42913	4.41672	4.31487	4.14978	3.98302	3.86652	4.02639	4.14046	4.2377	4.31888	4.40075	4.39423	4.36319	4.3281	4.29142	4.24742	4.19415	4.0156	3.89334	3.94165	3.98156	4.06185	4.08494	4.13107	4.1585	4.20035	4.2362	4.27366	4.34583	4.36557	4.30844	4.20194	4.12911	4.09401	4.09939	4.10601	4.12473	4.14661	4.16876	4.19733	4.22701	4.24831	4.24857	4.23807	4.20791	4.17969	4.14313	4.12593	4.10292	4.07663	4.05617	4.03388	4.01754	4.01113	3.98904	3.95665	3.93773	3.939	3.93155	3.90943	3.91284	3.91582	3.92146	3.93298	3.94061	3.95165	3.96196	3.97646	3.98992	4.00526	4.01952	4.03551	4.02031	4.00863	4.00435	4.00063	4.00578	4.01744	4.03497	4.04582	4.05272	4.05135	4.05574	4.06056	4.062	4.06501	4.06198	3.98362	3.98837	3.99388	4.00482	4.02118	4.03887	4.0633	4.13449	4.17543	4.21305	4.21557	4.22187	4.22401	4.24696	4.25883	4.27099	4.28957	4.30204	4.31737	4.33269	4.34483	4.3572	4.37139	4.37698	4.37378	4.37194	4.36538	4.32651	4.30644	4.29018	4.26862	4.24978	4.22775	4.20734	4.18547	4.15702	4.12203	4.08643	4.05154	4.01506	3.97919	3.93496	3.90496	3.8768	3.85264	3.83423	3.81681	3.80532	3.81099	3.8178	3.85327	3.88246	3.91099	3.94777	3.97838	4.00802	4.0369	4.0522	4.0639	4.07517	4.08733	4.09874	4.08741	4.09652	4.10366	4.11391	4.09885	4.07062	4.04784	4.0247	3.99592	3.93917	3.8856	3.83176	3.78503	3.73699	3.69884	3.65952	3.65837	3.64288	3.62884	3.62932	3.6325	3.71847	3.80698	3.9044	4.00861	4.14308	4.2303	4.29042	4.33286	4.34078	4.34691	4.35564	4.36642	4.37506	4.38493	4.36873	4.34451	4.28496	4.22771	4.1566	4.12709	4.10797	4.11449	4.12449	4.15395	4.18382	4.22332	4.28438	4.31012	4.33242	4.35788	4.37395	4.386	4.39665	4.40457	4.434	4.43931	4.44989	4.40597	4.39756	4.3868	4.38394	4.36826	4.36643	4.36854	4.36439	4.38073	4.36118	4.31751	4.32298	4.31747	4.30185	4.31728	4.32518	4.32957	4.33531	4.34501	4.34959	4.34749	4.3476	4.3444	4.34176	4.34137	4.33624	4.33118	4.32376	4.31222	4.26108	4.20627	4.17841	4.1487	4.12251	4.17376	4.1966	4.22693	4.32496	4.36638	4.4155	4.49172	4.46067	4.42227	4.32775	4.24565	4.15937	4.06973	3.9743	3.90343	3.83556	3.81226	3.79974	3.79178	3.87397	3.95242	4.05107	4.07375	4.099	4.12074	4.08268	4.06029	4.0431	4.006	3.96075	3.92886	3.94892	3.97346	3.9973	4.06893	4.12482	4.16299	4.1611	4.15157	4.13213	4.18726	4.21636	4.14505	4.06561	3.97887	3.90291	3.81166	3.72552	3.59171	3.49554	3.48904	3.52557	3.57258	3.62177	3.65372	3.67314	3.74662	3.75247	3.74806	3.7498	3.73916	3.73476	3.71918	3.65555	3.62475	3.59109	3.56215	3.54576	3.46666	3.48902	3.50725	3.5422	3.61311	3.68512	3.74084	3.80164	3.86023	3.92352	3.95699	3.97902	4.00436	4.03951	4.04064	4.03749	3.99609	3.96175	3.93853	3.8867	3.83405	3.79001	3.74171	3.69985	3.64476	3.63668	3.63656	3.7103	3.76172	3.83134	3.84278	3.84604	3.871	3.89025	3.90547	3.92342	3.95116	3.98805	3.95917	3.92993	3.90788	3.86328	3.87103	3.87967	3.8916	3.90661	3.94927	3.97866	4.00863	4.03903	4.0703	4.09365	4.10263	4.11341	4.12511	4.13712	4.15123	4.15993	4.18226	4.19997	4.22285	4.26361	4.28824	4.31577	4.34096	4.3615	4.37439	4.38761	4.40281	4.4136	4.42636	4.43484	4.43678	4.43167	4.4125	4.39257	4.36009	4.34098	4.32765	4.30911	4.31488	4.35031	4.35361	4.35644	4.35225	4.34547	4.29655	4.2492	4.20665	4.1687	4.13624	4.13049	4.20961	4.24565	4.26823	4.29201	4.30463	4.34515	4.39013	4.44127	4.50023	4.56777	4.65854	4.77569	4.76329	4.70848	4.66088	4.61895	4.6034	4.68197	4.73626	4.80696	4.83908	4.85747	4.85104	4.83975	4.83646	4.83689	4.84204	4.85429	4.87117	4.93943	5.01918	5.08421	5.1352	5.3356	5.51846	5.71662	5.93456	5.97093	5.96043	6.03495	6.24081	6.74353	6.7495	6.50584	6.57533	6.78698	6.92202	7.27469	7.41789	7.32061	7.62802	7.88346	8.33859	8.56363	9.04524	9.29004	9.96362	10.4417	11.1576	11.8885	12.7832	13.798	15.0206	16.5176	18.329	20.5031	23.0886	26.1113	29.7469	34.0828	38.5127	44.7997	52.4895	70.5328	87.3192	103.4	130.804	153.949	173.379	179.936	176.519	149.864	130.138	103.723	80.7944	58.0828	57.4549	43.1863	36.5341	31.2586	27.9332	24.436	21.1974	19.4482	17.3377	15.3595	13.916	12.8158	11.9241	11.1464	10.2652	9.61039	9.05317	8.59328	8.20618	7.88658	7.63782	7.45759	7.31343	7.20883	7.11632	7.03825	6.97464	6.91565	6.86749	6.81676	6.76901	6.69907	6.59044	6.39953	6.22154	6.05748	5.89497	5.66158	5.34753	5.15771	5.02108	4.98743	4.98647	5.03409	5.04718	4.9731	4.89622	4.83498	4.75859	4.68735	4.61189	4.52967	4.50707	4.50635	4.50301	4.49299	4.50375	4.51319	4.52806	4.54667	4.56495	4.54299	4.49929	4.47593	4.4433	4.40112	4.34612	4.27112	4.23262	4.19921	4.1652	4.13429	4.09491	4.09066	4.07469	4.05202	4.05269	4.05023	4.10206	4.14851	4.20735	4.2813	4.33621	4.35211	4.26051	4.22608	4.21052	4.20717	4.25486	4.26161	4.2522	4.18388	4.09938	4.0052	3.95569	3.93761	3.91328	3.93439	3.96718	3.91461	3.88009	3.7443	3.57849	3.39709	3.23468	3.5581	4.08748	3.95183	3.97375	3.99401	4.00975	3.961	3.91251	3.86033	3.80567	3.75219	3.6971	3.61889	3.6037	3.6214	3.63896	3.66217	3.68351	3.71033	3.733	3.7598	3.78524	3.80964	3.83497	3.83442	3.84345	3.85084	3.84363	3.83924	3.83037	3.87189	3.89658	3.88896	3.88453	3.87326	3.86499	3.85201	3.84222	3.82426	3.80729	3.73358	3.7037	3.67633	3.57316	3.45921	3.3719	3.32907	3.36824	3.45996	3.55921	3.56245	3.55768	3.57791	3.57822	3.5724	3.51851	3.43594	3.34676	3.41698	3.51297	3.60067	3.69442	3.78467	3.79492	3.75331	3.70699	3.63407	3.60672	3.5897	3.56784	3.54437	3.55734	3.58454	3.59876	3.61985	3.64616	3.66027	3.63908	3.63361	3.62755	3.62322	3.67345	3.7232	3.7783	3.83187	3.8319	3.84368	3.84349	3.84619	3.84221	3.84075	3.83369	3.82718	3.81849	3.79084	3.76596	3.73781	3.71583	3.69276	3.67117	3.64866	3.64632	3.62512	3.63372	3.64296	3.65894	3.67241	3.69265	3.70917	3.7281	3.7499	3.74396	3.72138	3.7159	3.70572	3.67602	3.65347	3.63792	3.61556	3.59855	3.5802	3.57795	3.5886	3.59496	3.6392	3.63963	3.63959	3.63938	3.65389	3.72609	3.78342	3.85051	3.91051	3.93569	3.95913	3.96865	3.98135	3.77109	1.7103	3.33023	4.00478	4.01035	4.01398	4.01763	4.02103	4.02342	4.0135	3.96184	3.89488	3.85549	3.82705	3.88052	3.87724	3.86965	3.86356	3.8625	3.86959	3.87272	3.85009	3.83292	3.81239	3.76903	3.74829	3.73545	3.74988	3.75408	3.75804	3.77805	3.7967	3.82283	3.85502	3.88382	3.90581	3.93571	3.9494	3.968	3.98889	4.00603	4.0259	4.04106	4.05909	4.07207	4.0876	4.08909	4.08982	4.09319	4.09359	4.09503	4.09238	4.09203	4.08753	4.06868	3.99309	3.88503	3.79017	3.69224	3.61115	3.54042	3.58844	3.61203	3.70233	3.73584	3.78107	3.81338	3.78486	3.75343	3.72815	3.74248	3.7274	3.70539	3.70163	3.70025	3.69938	3.69944	3.75918	3.77596	3.79668	3.81835	3.83317	3.81258	3.80505	3.77303	3.69731	3.64952	3.59934	3.55424	3.50818	3.45476	3.44339	3.45211	3.46481	3.47428	3.49861	3.50906	3.53426	3.57565	3.58435	3.65843	3.75017	3.82552	3.91233	3.97093	4.03194	4.09109	4.13033	4.15648	4.176	4.17008	4.16916	4.15626	4.08423	4.0064	3.93614	3.86155	3.78857	3.71787	3.64995	3.61727	3.59597	3.58938	3.58171	3.58263	3.60777	3.59335	3.56622	3.5462	3.58043	3.57786	3.59272	3.5933	3.62259	3.65506	3.68891	3.72545	3.76594	3.80677	3.85332	3.89928	3.91109	3.90392	3.90063	3.89221	3.89048	3.88259	3.86045	3.83954	3.82991	3.81034	3.80451	3.79992	3.83642	3.85607	3.87962	3.89622	3.92126	3.93557	3.94834	3.97829	3.9833	3.98799	3.99292	3.99507	3.9972	3.99925	4.00595	4.00458	3.99657	3.99397	3.98387	3.97939	3.96817	3.96134	3.95244	3.94535	3.94022	3.93515	3.93636	3.93619	3.94662	3.9555	3.97793	4.05672	4.07521	4.05937	4.03658	4.00002	3.94877	3.90146	3.8074	3.70462	3.61331	3.54218	3.49057	3.50114	3.53801	3.63824	3.73501	3.77857	3.80331	3.82131	3.56359	3.15592	3.51203	3.81484	3.80788	3.76151	3.70366	3.65115	3.6034	3.57085	3.54455	3.53383	3.54479	3.60721	3.68012	3.75182	3.83262	3.90491	3.96121	3.97785	3.94788	3.92469	3.89531	3.86839	3.84068	3.81171	3.78501	3.73037	3.68643	3.64321	3.6132	3.65423	3.67296	3.70123	3.73542	3.7465	3.75124	3.74962	3.79191	3.80723	3.84147	3.83541	3.84395	3.84855	3.78631	3.75106	3.71465	3.68125	3.5855	3.50538	3.44613	3.37291	3.41702	3.4781	3.52744	3.60115	3.63396	3.65018	3.66749	3.67946	3.65861	3.64707	3.62886	3.62063	3.61655	3.61843	3.63845	3.66875	3.68961	3.70653	3.68609	3.61546
20	0	3.51204	4.01422	4.18829	4.35487	4.37753	4.3875	4.38933	4.38637	4.38082	4.37266	4.36559	4.35724	4.3537	4.34896	4.3521	4.35187	4.35722	4.36015	4.37015	4.38152	4.38939	4.40203	4.41249	4.42107	4.42801	4.43583	4.44226	4.45012	4.45662	4.46443	4.47137	4.47925	4.48679	4.49337	4.50013	4.50546	4.50996	4.50996	4.50381	4.50679	4.50713	4.51062	4.50563	4.45158	4.39677	4.34824	4.32877	4.30732	4.29022	4.269	4.28953	4.31386	4.35062	4.38412	4.41414	4.44459	4.42734	4.40796	4.38402	4.35851	4.33333	4.3087	4.28493	4.26228	4.24118	4.22174	4.20416	4.18867	4.17407	4.1682	4.16282	4.16068	4.16297	4.23973	4.2807	4.33463	4.38126	4.38363	4.3613	4.34254	4.33112	4.36389	4.00523	2.54525	3.0272	4.12574	4.41517	4.39998	4.22725	3.90137	4.18249	4.1811	4.20316	4.17817	4.17106	4.16926	4.16416	4.19314	4.19718	4.17026	4.17837	4.19707	4.22916	4.27359	4.33669	4.39536	4.44679	4.49109	4.51079	4.4903	4.48464	4.48168	4.45092	4.45705	4.46936	4.42208	4.40798	4.40508	4.39978	4.40162	4.42042	4.4658	4.49543	4.52671	4.54734	4.57094	4.57915	4.52723	4.46032	4.39484	4.27404	4.16942	4.06669	3.98886	3.88477	3.82369	3.80942	3.87793	3.93141	3.99574	4.06595	4.14651	4.21582	4.24239	4.20938	4.15068	4.10615	4.07028	4.1485	4.21367	4.27836	4.27274	4.27092	4.25066	4.23144	4.21366	4.20404	4.18999	4.21888	4.21957	4.23155	4.23707	4.24422	4.25004	4.25787	4.26509	4.27369	4.25827	4.27473	4.29655	4.31592	4.34106	4.36313	4.39075	4.3552	4.29992	4.33525	4.39597	4.43296	4.46931	4.50045	4.52763	4.51658	4.47034	4.47597	4.48436	4.51103	4.53351	4.55952	4.5765	4.54761	4.42162	4.35201	4.29058	4.22589	4.17369	4.12134	4.09115	4.08873	4.20125	4.26925	4.33069	4.42288	4.5043	4.571	4.64847	4.70939	4.7521	4.79716	4.74307	4.70337	4.65099	4.5921	4.53409	4.47514	4.41205	4.36118	4.29005	4.30263	4.35739	4.43244	4.4873	4.56034	4.64063	4.72082	4.78473	4.80918	4.83596	4.85414	4.81743	4.73359	4.64173	4.54192	4.44623	4.34725	4.26089	4.19574	4.12748	4.2104	4.28916	4.38965	4.50727	4.60627	4.66835	4.70213	4.69809	4.69094	4.68735	4.6725	4.67708	4.58694	4.5378	4.48291	4.43568	4.39585	4.35435	4.37174	4.37828	4.38944	4.39089	4.40008	4.42698	4.41419	4.39764	4.37366	4.35735	4.2926	4.22769	4.20089	4.18502	4.15799	4.15691	4.15201	4.16226	4.16908	4.18794	4.20587	4.28087	4.31165	4.31321	4.27325	4.23508	4.19429	4.14758	4.12155	4.13063	4.1331	4.13523	4.14266	4.14724	4.10564	4.12087	4.13894	4.22318	4.28053	4.34946	4.39933	4.42271	4.44257	4.43075	4.41072	4.39431	4.32345	4.23244	4.14443	4.05721	3.97229	3.89962	3.82291	3.75931	3.74043	3.69921	3.6755	3.6628	3.65457	3.65184	3.66766	3.71514	3.77042	3.8317	3.89844	3.96311	4.03058	4.0983	4.16233	4.20552	4.24581	4.24134	4.22127	4.27323	4.33306	4.37909	4.34263	4.25548	4.17887	4.08584	3.99394	3.90653	3.81779	3.74304	3.68275	3.64303	3.71458	3.83431	3.96149	4.10265	4.23712	4.37216	4.46139	4.49148	4.47589	4.45691	4.43526	4.37487	4.31228	4.24831	4.18128	4.12976	4.07341	4.01427	3.97305	3.98668	4.02621	4.05858	4.10242	4.15367	4.20434	4.25448	4.30253	4.3503	4.39279	4.43491	4.50174	4.52856	4.50827	4.45622	4.40671	4.36817	4.31915	4.31271	4.30175	4.33906	4.32399	4.28827	4.23384	4.2622	4.2941	4.33434	4.43268	4.50542	4.57224	4.54442	4.58958	4.63035	4.65301	4.66927	4.69191	4.72131	4.75665	4.79062	4.82428	4.84664	4.84731	4.85123	4.84314	4.82758	4.77377	4.7258	4.66817	4.61365	4.55593	4.49842	4.44018	4.39629	4.34916	4.30943	4.31372	4.34063	4.40029	4.51014	4.60836	4.70674	4.82543	4.96377	5.01788	5.07181	5.00304	4.94438	4.91262	4.90469	4.9435	4.99738	5.02007	5.05813	5.10521	5.19645	5.30987	5.32912	5.29537	5.2793	5.28935	5.31787	5.34289	5.37291	5.41022	5.46809	5.53931	5.60441	5.69266	5.76616	5.90839	6.02967	6.15009	6.28355	6.41453	6.48788	6.55046	6.63119	6.71848	6.82341	6.94314	7.08829	7.21872	7.41152	7.5273	7.61697	7.72559	7.85677	8.14613	8.4094	8.73382	9.10014	9.4925	10.1169	10.7592	11.526	12.2668	13.2093	13.8902	14.7179	15.7271	16.9139	18.354	20.0499	22.4661	25.0505	28.0943	31.614	35.7472	40.5875	45.8589	55.3629	66.2478	82.1434	97.3708	123.209	160.165	190.095	233.794	251.912	257.529	231.71	197.241	160.744	127.799	97.1017	83.9569	67.4065	57.7633	47.8323	37.7371	34.4509	30.202	26.6955	23.8806	21.6134	18.6976	17.1595	16.209	15.5362	14.7373	13.8376	13.0836	12.4039	11.7747	11.1864	10.6827	10.2367	9.84585	9.51729	9.13279	8.76125	8.4067	8.07761	7.79219	7.54258	7.32909	7.12448	6.94134	6.75253	6.62526	6.53218	6.44717	6.37254	6.31507	6.23386	6.11053	5.96327	5.90303	5.8854	5.87904	5.8101	5.73261	5.67115	5.61026	5.52856	5.44793	5.37982	5.3093	5.24689	5.19578	5.14912	5.11425	5.08664	5.06603	5.05889	5.05114	5.05227	5.04602	5.01813	4.96838	4.92143	4.88276	4.84579	4.81567	4.78868	4.76785	4.75091	4.73718	4.72514	4.73886	4.75579	4.77486	4.8139	4.84051	4.87353	4.88511	4.83578	4.79286	4.71058	4.66586	4.60846	4.56197	4.50678	4.4513	4.37315	4.28075	4.20682	4.13074	4.05366	3.9964	3.93184	3.86588	3.87863	3.91119	3.95798	4.04501	4.12545	4.21087	4.25391	4.28285	4.23898	4.1705	4.16742	4.16941	4.17307	4.17772	4.18687	4.19284	4.20543	4.22961	4.19687	4.14766	4.09257	4.01279	3.9629	3.93944	3.9396	4.01873	4.03148	4.04649	4.05667	4.07049	4.08219	4.09716	4.10561	4.08776	4.07628	4.06264	4.0709	4.05323	4.03515	4.01404	3.98864	3.92604	3.89374	3.85925	3.83434	3.81035	3.78845	3.77236	3.74115	3.73439	3.72487	3.72272	3.71565	3.78168	3.80512	3.84261	3.88346	3.90007	3.9112	3.91936	3.91854	3.91242	3.90968	3.86747	3.84028	3.81984	3.7851	3.75123	3.73152	3.72558	3.69619	3.68368	3.69321	3.7165	3.7328	3.76205	3.7847	3.81878	3.88486	3.92662	3.94457	3.95519	3.97304	4.02025	4.06266	4.09903	4.13473	4.12665	4.12129	4.08203	4.04342	4.05443	4.07444	4.08427	4.038	3.97738	3.92898	3.87587	3.83453	3.78406	3.7386	3.67049	3.65718	3.64071	3.63448	3.71025	3.73014	3.7406	3.75113	3.75734	3.71059	3.66999	3.64461	3.64841	3.73323	3.81261	3.86434	3.92232	3.91078	3.8606	3.79461	3.73381	3.68073	3.627	3.57372	3.51675	3.49405	3.46436	3.42439	3.44032	3.51593	3.58764	3.65506	3.72381	3.79453	3.86156	3.91059	3.92928	3.94558	3.96184	3.97398	3.98793	3.9985	4.00924	3.99223	3.92325	3.83089	3.74695	3.66459	3.58556	3.50527	3.42945	3.35809	3.30716	3.24326	3.2199	3.2333	3.28387	3.32265	3.40106	3.48016	3.56736	3.65066	3.74262	3.83244	3.92593	3.97204	4.01182	4.04642	4.04962	4.05147	4.05604	4.05858	4.06421	4.06913	4.07565	4.0816	4.08954	4.09697	4.10533	4.11615	4.12882	4.21418	4.29881	4.37044	4.42579	4.36125	4.28009	4.19247	4.1084	4.01511	3.94074	3.83029	3.78314	3.73106	3.71783	3.66981	3.62656	3.68466	3.93676	4.06876	4.15204	4.20627	4.15178	4.12451	4.06475	3.98348	3.83226	3.82965	3.86665	3.85301	3.81805	3.81291	3.79653	3.85348	3.89298	3.93352	3.99426	4.04882	4.08196	4.09657	3.9995	3.70381	3.71978	3.81012	3.94067	4.12701	4.34491	4.50578	4.51441	4.40426	4.30059	4.1215	4.01634	3.88669	3.85196	3.85953	3.85957	3.86917	3.88241	3.88378	3.86712	3.85508	3.89484	3.96561	4.03481	4.10889	4.133	4.17982	4.24033	4.24687	4.25074	4.25261	4.25127	4.24917	4.24256	4.22434	4.20414	4.18746	4.1633	4.11399	4.10433	4.08845	4.0781	4.07878	4.07232	4.07982	4.11247	4.10517	4.07659	4.04168	4.00982	3.98023	3.95513	3.93029	3.9033	3.88881	3.87886	3.88622	3.88793	3.91169	3.95726	4.00497	4.05998	4.12578	4.17848	4.19681	4.20472	4.21519	4.21584	4.22195	4.22293	4.21938	4.20438	4.19091	4.17219	4.13357	4.07069	3.97451	3.91752	3.86784	3.82655	3.79577	3.77807	3.84806	3.91128	3.98916	4.04656	4.11855	4.1345	4.13104	4.10755	4.11559	4.1269	4.0679	3.96687	3.88818	3.79478	3.80612	3.87706	3.91303	3.9272	3.92958	3.96428	3.99546	4.03455	4.0561	4.09001	4.11018	4.12269	4.1506	4.15523	4.12136	4.08758	4.03232	3.99593	3.95185	3.91568	3.85795	3.8658	3.88231	3.95909	4.01449	4.06384	4.13331	4.1756	4.17594	4.12685	4.08088	4.02513	3.95405	3.86747	3.78655	3.72282	3.7817	3.84259	3.91065	3.97385	4.04074	4.07956	4.11684	4.15737	4.19337	4.24073	4.24424	4.21499	4.18183	4.14466	4.10935	4.06366	4.01293	3.99486	3.96097	3.92466	3.89012	3.86044	3.83472	3.81209	3.81108	3.88599	3.93513	3.99472	4.05896	4.17185	4.21024	4.21758	4.25345	4.24423	4.23103	4.21671	4.20298	4.15634	4.11972	4.09116	4.0592	4.03087	4.0013	3.97849	3.96125	3.94883	3.95254	3.95675	3.94378	3.92139	3.90122	3.93724	3.95596	3.98462	4.0228	4.06934	4.11663	4.15607	4.18793	4.20736	4.24111	4.25561	4.28973	4.30251	4.33559	4.34038	4.36916
20	20	2.82851	3.21602	3.54095	3.86406	4.03024	4.13616	4.20941	4.31558	4.29394	4.27026	4.2612	4.28516	4.29179	4.35688	4.40041	4.44052	4.47288	4.51455	4.51955	4.54216	4.53379	4.49906	4.4784	4.45828	4.39311	4.34236	4.25834	4.14424	4.03014	3.92913	3.88401	3.92755	4.00271	4.12516	4.23883	4.35812	4.43103	4.44009	4.40396	4.41642	4.41747	4.39989	4.37308	4.3621	4.34199	4.35393	4.32296	4.2741	4.23981	4.21668	4.27583	4.3396	4.38577	4.3664	4.30787	4.24832	4.17916	4.13431	4.1028	4.09496	4.1906	4.20938	4.21897	4.22957	4.23878	4.26612	4.29116	4.30623	4.24683	4.17357	4.1118	4.06559	4.06587	4.12022	4.1922	4.196	4.35758	4.42209	4.51413	4.52919	4.54392	4.53515	4.45747	4.35184	4.2351	4.17452	4.06299	4.00925	3.97923	3.99952	4.02462	4.04609	4.06234	4.08808	4.10599	4.11565	4.09969	4.08603	4.07655	4.07629	4.08148	4.09534	4.03906	4.01395	3.96731	3.89024	3.84742	3.85064	3.84132	3.78606	3.77268	3.81112	3.8318	3.92154	3.9547	4.01324	3.97012	3.9174	3.89367	3.89647	3.91631	3.92298	3.94905	3.99737	4.06267	4.04754	4.03688	4.02001	3.98217	3.98341	3.97882	4.00275	4.03401	4.07907	4.07158	4.06887	4.00501	4.00973	4.05632	4.08351	4.12062	4.16306	4.19896	4.28043	4.32908	4.35613	4.38516	4.3985	4.40907	4.41441	4.41002	4.39488	4.36418	4.32057	4.25419	4.19444	4.10586	4.08259	4.10748	4.13107	4.16188	4.18239	4.20362	4.23619	4.24045	4.26178	4.2761	4.30914	4.3351	4.36378	4.32257	4.26208	4.18752	4.09106	4.02094	3.9365	3.9196	3.94536	3.96802	3.9822	4.01695	4.08656	4.15843	4.2446	4.28291	4.32538	4.32833	4.29565	4.31702	4.34635	4.37716	4.3843	4.373	4.34695	4.28428	4.25138	4.20346	4.25511	4.31884	4.30667	4.30564	4.29885	4.37261	4.31212	4.21339	4.13912	4.1147	4.11408	4.18162	4.55574	4.64716	4.76328	4.83914	4.91426	4.92683	4.94997	5.00576	4.98917	4.95923	4.89543	4.81532	4.73582	4.65784	4.56624	4.4675	4.36752	4.2787	4.22547	4.18061	4.20284	4.26986	4.30082	4.30023	4.30722	4.29681	4.28832	4.28435	4.28339	4.26065	4.21131	4.14859	4.09598	4.10992	4.10834	4.09959	4.08353	4.08512	4.09207	4.06579	4.03605	4.01781	4.0541	4.0735	4.09997	4.12516	4.16275	4.19534	4.26011	4.34472	4.33192	4.3096	4.27702	4.22845	4.21064	4.19368	4.18726	4.15015	4.15141	4.15582	4.15901	4.13913	4.16102	4.14191	4.11384	4.1516	4.20635	4.23386	4.22879	4.14929	4.10804	4.06131	4.04456	4.04716	4.05422	4.05578	4.01291	4.01961	3.98096	3.91684	3.90864	3.84813	3.80783	3.78469	3.75008	3.73235	3.69294	3.65496	3.4714	3.47202	3.52936	3.61307	3.74767	3.85898	3.95189	4.01247	4.05543	4.01865	4.01339	4.01601	4.03408	4.05563	4.07637	4.10575	4.10639	4.06896	4.06062	4.06662	4.06276	4.06933	4.07299	4.07576	4.06132	4.04467	4.06369	4.08118	4.12862	4.13057	4.14695	4.12691	4.08749	4.05097	3.94239	3.89978	3.86282	3.82771	3.80141	3.78158	3.76769	3.81777	3.84819	3.88879	3.93269	3.93756	3.95935	3.97706	3.99677	3.99262	3.98996	3.96693	3.95382	3.94959	3.94889	3.92636	3.88502	3.86958	3.87161	3.8891	3.96406	3.98042	4.00014	4.0181	4.04818	4.06875	4.09111	4.1176	4.1389	4.16623	4.18053	4.19549	4.2125	4.18918	4.18984	4.17529	4.16765	4.17839	4.18797	4.19899	4.10047	4.05186	4.00161	3.96295	3.83569	3.83926	3.89498	3.95776	3.99819	4.05518	4.06123	4.03093	4.00009	3.99085	4.0002	3.98855	3.90886	3.88109	3.83619	3.80369	3.79206	3.79903	3.84403	3.94321	3.98075	4.04407	4.09376	4.13007	4.15881	4.14244	4.08845	4.0044	3.93166	3.92183	3.92065	4.00349	4.01217	3.95719	3.91468	3.86956	3.86975	3.9179	3.98885	4.09702	4.15864	4.26831	4.33244	4.40423	4.48537	4.55602	4.59919	4.66234	4.68034	4.70265	4.68686	4.61239	4.50162	4.35318	4.3061	4.30301	4.28166	4.22122	4.26186	4.33178	4.41394	4.51662	4.5943	4.67049	4.67298	4.71342	4.77849	4.8059	4.88735	4.98318	4.99954	5.04508	5.10797	5.20679	5.33159	5.50771	5.62798	5.71241	5.83123	5.95826	6.05346	6.15349	6.2833	6.44174	6.61496	6.84712	7.07102	7.2735	7.42913	7.58232	7.62571	7.73316	7.95292	8.19484	8.43941	8.78028	9.18198	9.63809	10.3018	10.8849	11.691	12.5578	13.735	15.0134	16.7486	18.5713	20.5348	22.953	25.9161	29.514	34.0034	39.943	47.7629	59.8	72.1114	88.5942	107	138.958	160.768	177.815	173.068	157.167	131.361	113.316	83.9942	69.8534	57.5047	49.2614	39.9964	34.4607	30.4874	26.4712	23.2249	20.9512	18.7076	16.6993	15.1664	13.9251	12.8426	11.568	10.6001	9.79542	9.21118	8.70504	8.38894	8.07437	7.87144	7.61814	7.44594	7.22654	7.02528	6.79776	6.65276	6.51407	6.31484	6.18858	6.05878	5.89411	5.72971	5.54238	5.42861	5.34522	5.37858	5.41942	5.44016	5.47087	5.51906	5.50986	5.48147	5.44649	5.39797	5.34984	5.25918	5.13996	5.00967	4.81179	4.61438	4.46236	4.28847	4.17647	4.18342	4.14916	4.12616	4.11631	4.15549	4.21932	4.28431	4.32202	4.36758	4.43763	4.49179	4.46545	4.40005	4.38668	4.38044	4.41325	4.42592	4.44383	4.46254	4.48013	4.49822	4.47501	4.39953	4.28942	4.20089	4.12953	4.01747	4.02674	4.01296	4.03222	4.08153	4.054	3.98913	3.95937	3.95025	3.97128	4.00758	4.07587	4.18443	4.24338	4.30406	4.2866	4.25343	4.08242	3.94352	3.82356	3.74262	3.69432	3.7222	3.91474	3.9705	4.00699	4.06753	4.12344	4.18317	4.21187	4.22651	4.24251	4.2441	4.20003	4.15863	4.06916	3.97622	3.8971	3.83804	3.75785	3.70103	3.67776	3.68625	3.71428	3.78703	3.82726	3.86212	3.94329	3.93487	3.89335	3.84279	3.73356	3.67675	3.61649	3.57055	3.51491	3.46061	3.43091	3.36444	3.38107	3.37095	3.37535	3.44118	3.48055	3.56162	3.63109	3.6926	3.76136	3.79367	3.83946	3.87288	3.83107	3.79683	3.76903	3.73395	3.69731	3.71927	3.74683	3.80027	3.81273	3.79627	3.70128	3.65997	3.57671	3.54511	3.47181	3.46285	3.48646	3.52741	3.58671	3.6148	3.62883	3.64917	3.63742	3.45171	3.55181	3.63726	3.61493	3.65114	3.69666	3.72893	3.66962	3.71558	3.73803	3.76351	3.82889	3.90081	4.02668	4.03124	3.90233	3.80694	3.75786	3.72969	3.73979	3.75669	3.74205	3.73367	3.73279	3.75415	3.75292	3.75498	3.82066	3.79705	3.73622	3.67129	3.63462	3.60318	3.61091	3.64182	3.66024	3.68947	3.7533	3.77094	3.79321	3.8343	3.87974	3.92701	3.97026	3.97411	3.95432	3.92846	3.91165	3.89986	3.86878	3.81089	3.72188	3.65625	3.65506	3.65512	3.65224	3.65975	3.69156	3.68686	3.73898	3.74543	3.76083	3.77782	3.8283	3.82242	3.83117	3.8029	3.71914	3.63579	3.58048	3.52876	3.5036	3.47046	3.48667	3.52778	3.55867	3.58642	3.66387	3.76158	3.84485	3.89432	3.93315	3.93682	3.92021	3.88681	3.83885	3.77294	3.64775	3.62762	3.67384	3.73113	3.76338	3.73689	3.70933	3.82522	3.8738	3.88397	3.89129	3.90978	3.94301	3.92647	3.83972	3.74942	3.68234	3.5877	3.50579	3.47333	3.48863	3.57778	3.62749	3.66322	3.67444	3.66627	3.67133	3.66332	3.65488	3.64326	3.64593	3.61488	3.6327	3.6634	3.67114	3.69537	3.70893	3.65884	3.70886	3.76509	3.76343	3.78807	3.81303	3.84839	3.92637	3.98316	4.05504	4.08446	4.09534	4.07818	4.07252	4.05041	4.05202	4.03875	4.04017	4.03646	4.04815	4.05373	4.07516	4.07143	4.06142	4.05444	4.04312	4.02824	4.0211	4.00813	3.98521	3.94943	3.94649	3.9361	3.9628	3.98049	3.96521	3.95355	3.94606	3.99094	3.99954	3.98352	3.97232	3.95494	3.9297	3.86326	3.84919	3.84597	3.83846	3.86872	3.85788	3.87609	3.88431	3.89862	3.88957	3.86908	3.83279	3.81621	3.68826	3.54731	3.39622	3.35018	3.46392	3.7623	4.01211	4.05293	4.12615	4.19966	4.22879	4.12834	4.09105	4.1049	4.07028	4.13846	4.17233	4.09351	4.014	3.93159	3.87002	3.79797	3.64757	3.51431	3.36373	3.38299	3.34625	3.36752	3.36741	3.44437	3.47096	3.58521	3.69937	3.86004	4.0514	4.19577	4.20816	4.16719	4.10917	4.05523	3.9953	3.95023	3.90911	3.863	3.83082	3.82478	3.84134	3.79827	3.7473	3.70449	3.65624	3.63892	3.60453	3.54518	3.48064	3.45441	3.45497	3.46674	3.4568	3.49371	3.59925	3.72652	3.75652	3.76944	3.77986	3.78651	3.78629	3.78938	3.76591	3.73545	3.72767	3.72142	3.74323	3.76072	3.7897	3.82751	3.82439	3.8232	3.81775	3.80967	3.81948	3.81515	3.79179	3.73289	3.72511	3.67284	3.61857	3.5957	3.57207	3.54283	3.53763	3.54113	3.65692	3.75282	3.812	3.87787	3.90383	3.89767	3.84159	3.76601	3.65227	3.55549	3.48688	3.40221	3.42169	3.46854	3.561	3.64542	3.74575	3.80722	3.83277	3.873	3.91269	3.92985	3.9382	3.9464	3.94627	3.95237	3.95052	3.92519	3.93278	3.92523	3.9109	3.89429	3.93221	3.94221	3.89481	3.85628	3.83241	3.79203	3.7083	3.68243	3.61463	3.5534	3.53985	3.56883	3.61168	3.65023	3.7351	3.80812	3.85506	3.9115	3.95659	3.90783	3.84772	3.78665	3.73709	3.72508	3.70896	3.6986	3.69271	3.70841	3.72562	3.66967	3.627	3.55086	3.47398	3.42342	2.50211	3.25497	3.19444	3.14053
