Acq. time (s)=	4
Accumulations=	3
Range=	Off
Autofocus=	At all XY pixels
SWIFT=	Off
AutoExposure=	Off
Spike filter=	Multiple accum.
Delay time (s)=	0
Binning=	1
Readout mode=	Signal
DeNoise=	Standard
ICS correction=	On
Dark correction=	Off
Inst. Process=	Off
Instrument=	LabRAM S3000
Detector=	Synapse
Objective=	x100
Grating=	1800
ND Filter=	25%
Laser (nm)=	632.81 
Spectro (cm-¹)=	521.228
Slit=	100.021
Hole=	199.981
Microscope=	Principal
StageXY=	Märzhauser
StageZ=	Märzhauser
Z (µm)=	-727.9
Project=	
Sample=	
Site=	
Title=	SOP_200nm_furu_p0.4
Remark=	
Date=	14.06.2019 12:02
Operator=	
Acquired=	14.06.2019 12:02:14
		358.285	358.609	358.934	359.26	359.585	359.909	360.235	360.56	360.886	361.21	361.535	361.859	362.185	362.51	362.834	363.16	363.485	363.809	364.135	364.459	364.784	365.108	365.434	365.758	366.083	366.407	366.733	367.057	367.381	367.705	368.03	368.355	368.68	369.004	369.328	369.652	369.978	370.302	370.626	370.95	371.274	371.598	371.923	372.248	372.572	372.896	373.22	373.544	373.868	374.192	374.516	374.84	375.164	375.49	375.813	376.137	376.461	376.785	377.109	377.433	377.757	378.081	378.404	378.728	379.052	379.376	379.699	380.023	380.347	380.671	380.994	381.318	381.642	381.965	382.288	382.611	382.935	383.258	383.582	383.906	384.229	384.553	384.876	385.2	385.522	385.845	386.169	386.492	386.816	387.139	387.463	387.785	388.108	388.431	388.755	389.078	389.402	389.723	390.047	390.37	390.693	391.015	391.338	391.662	391.985	392.307	392.63	392.953	393.276	393.598	393.921	394.244	394.566	394.889	395.212	395.535	395.857	396.18	396.503	396.825	397.148	397.471	397.792	398.115	398.437	398.76	399.083	399.404	399.727	400.049	400.372	400.694	401.016	401.339	401.66	401.983	402.304	402.627	402.95	403.271	403.594	403.915	404.238	404.559	404.882	405.203	405.526	405.847	406.17	406.491	406.814	407.135	407.456	407.778	408.1	408.422	408.743	409.066	409.387	409.708	410.03	410.351	410.674	410.995	411.316	411.638	411.959	412.282	412.602	412.923	413.246	413.567	413.888	414.21	414.531	414.852	415.174	415.495	415.815	416.136	416.458	416.779	417.1	417.421	417.743	418.064	418.384	418.705	419.027	419.348	419.668	419.989	420.311	420.632	420.952	421.273	421.593	421.914	422.236	422.556	422.877	423.197	423.518	423.838	424.16	424.481	424.801	425.121	425.442	425.762	426.083	426.403	426.723	427.044	427.365	427.686	428.006	428.326	428.647	428.967	429.287	429.607	429.927	430.248	430.568	430.888	431.208	431.528	431.848	432.169	432.489	432.809	433.129	433.449	433.769	434.088	434.408	434.728	435.048	435.368	435.688	436.008	436.327	436.647	436.967	437.287	437.606	437.926	438.245	438.565	438.885	439.205	439.523	439.843	440.163	440.483	440.802	441.121	441.44	441.76	442.08	442.4	442.718	443.037	443.357	443.677	443.995	444.315	444.634	444.954	445.272	445.591	445.911	446.229	446.549	446.868	447.186	447.506	447.825	448.143	448.463	448.782	449.1	449.419	449.739	450.057	450.376	450.695	451.013	451.333	451.65	451.97	452.288	452.607	452.926	453.244	453.563	453.881	454.2	454.518	454.837	455.155	455.474	455.792	456.111	456.428	456.748	457.065	457.384	457.702	458.021	458.338	458.658	458.975	459.294	459.612	459.929	460.248	460.566	460.884	461.202	461.519	461.838	462.156	462.475	462.792	463.109	463.428	463.746	464.063	464.382	464.699	465.016	465.335	465.652	465.97	466.288	466.606	466.923	467.242	467.559	467.876	468.193	468.512	468.829	469.146	469.463	469.782	470.099	470.416	470.733	471.05	471.369	471.686	472.003	472.32	472.637	472.954	473.272	473.589	473.906	474.223	474.54	474.857	475.174	475.492	475.809	476.126	476.442	476.759	477.076	477.393	477.71	478.026	478.343	478.66	478.977	479.293	479.61	479.928	480.245	480.562	480.878	481.195	481.512	481.828	482.145	482.461	482.777	483.093	483.41	483.726	484.043	484.359	484.676	484.992	485.309	485.625	485.942	486.258	486.575	486.889	487.206	487.522	487.839	488.155	488.471	488.788	489.104	489.419	489.735	490.051	490.368	490.684	490.999	491.315	491.631	491.947	492.264	492.578	492.895	493.211	493.527	493.842	494.158	494.474	494.79	495.104	495.421	495.737	496.051	496.367	496.683	496.998	497.314	497.63	497.944	498.26	498.576	498.891	499.206	499.522	499.837	500.153	500.469	500.783	501.099	501.413	501.729	502.043	502.359	502.675	502.989	503.305	503.619	503.935	504.249	504.565	504.879	505.195	505.509	505.825	506.139	506.454	506.769	507.084	507.398	507.714	508.028	508.343	508.658	508.973	509.287	509.601	509.917	510.231	510.546	510.86	511.174	511.489	511.803	512.119	512.433	512.747	513.062	513.376	513.69	514.005	514.319	514.633	514.948	515.262	515.576	515.891	516.204	516.518	516.832	517.147	517.461	517.775	518.088	518.403	518.717	519.031	519.344	519.659	519.973	520.287	520.6	520.914	521.229	521.542	521.856	522.169	522.483	522.797	523.111	523.425	523.738	524.052	524.365	524.679	524.992	525.305	525.62	525.934	526.247	526.56	526.874	527.187	527.5	527.814	528.127	528.44	528.753	529.067	529.38	529.693	530.006	530.32	530.633	530.946	531.259	531.572	531.885	532.198	532.512	532.825	533.138	533.451	533.764	534.077	534.39	534.702	535.015	535.328	535.641	535.953	536.266	536.579	536.892	537.204	537.517	537.83	538.142	538.455	538.768	539.08	539.392	539.705	540.018	540.331	540.642	540.955	541.268	541.58	541.893	542.204	542.517	542.83	543.141	543.454	543.766	544.079	544.39	544.703	545.015	545.327	545.639	545.952	546.263	546.575	546.888	547.199	547.511	547.824	548.135	548.447	548.76	549.071	549.383	549.694	550.007	550.319	550.63	550.942	551.253	551.565	551.876	552.189	552.5	552.812	553.123	553.435	553.746	554.058	554.369	554.681	554.992	555.304	555.615	555.927	556.237	556.55	556.86	557.172	557.483	557.795	558.106	558.416	558.728	559.039	559.351	559.662	559.972	560.284	560.595	560.905	561.217	561.528	561.838	562.15	562.46	562.771	563.083	563.393	563.704	564.015	564.326	564.636	564.947	565.258	565.569	565.879	566.189	566.501	566.811	567.122	567.432	567.743	568.054	568.364	568.674	568.984	569.296	569.606	569.916	570.226	570.536	570.847	571.158	571.468	571.778	572.088	572.398	572.708	573.018	573.329	573.639	573.95	574.26	574.57	574.88	575.19	575.5	575.81	576.12	576.429	576.739	577.049	577.359	577.669	577.979	578.289	578.598	578.908	579.218	579.528	579.837	580.147	580.457	580.767	581.076	581.386	581.694	582.004	582.314	582.623	582.933	583.242	583.552	583.862	584.171	584.479	584.789	585.098	585.408	585.718	586.027	586.335	586.645	586.954	587.263	587.573	587.881	588.19	588.5	588.809	589.119	589.426	589.736	590.045	590.354	590.662	590.972	591.281	591.589	591.898	592.207	592.515	592.824	593.134	593.441	593.751	594.06	594.367	594.677	594.986	595.294	595.603	595.912	596.219	596.528	596.836	597.145	597.454	597.762	598.071	598.378	598.687	598.995	599.304	599.611	599.92	600.228	600.537	600.846	601.153	601.462	601.77	602.077	602.386	602.693	603.002	603.309	603.618	603.926	604.234	604.542	604.85	605.158	605.465	605.774	606.081	606.39	606.697	607.004	607.313	607.62	607.927	608.236	608.543	608.85	609.159	609.466	609.773	610.081	610.389	610.696	611.004	611.311	611.618	611.925	612.234	612.541	612.848	613.155	613.463	613.77	614.077	614.384	614.691	614.999	615.306	615.613	615.92	616.227	616.535	616.842	617.149	617.456	617.762	618.069	618.376	618.684	618.991	619.298	619.604	619.911	620.218	620.524	620.831	621.138	621.444	621.751	622.058	622.366	622.672	622.979	623.286	623.592	623.899	624.205	624.512	624.818	625.125	625.431	625.738	626.044	626.349	626.656	626.962	627.269	627.575	627.881	628.188	628.494	628.8	629.107	629.413	629.719	630.024	630.331	630.637	630.943	631.25	631.556	631.861	632.167	632.473	632.779	633.085	633.392	633.696	634.003	634.309	634.615	634.919	635.226	635.532	635.838	636.142	636.448	636.754	637.06	637.365	637.671	637.977	638.282	638.588	638.894	639.198	639.504	639.81	640.114	640.42	640.726	641.031	641.337	641.642	641.947	642.253	642.557	642.863	643.169	643.473	643.779	644.083	644.389	644.693	644.999	645.305	645.609	645.914	646.219	646.524	646.829	647.134	647.438	647.744	648.048	648.354	648.658	648.962	649.268	649.572	649.877	650.181	650.487	650.791	651.095	651.4	651.704	652.01	652.314	652.618	652.923	653.227	653.533	653.836	654.14	654.446	654.75	655.054	655.357	655.663	655.967	656.27	656.576	656.879	657.183	657.488	657.792	658.096	658.4	658.705	659.009	659.312	659.616	659.92	660.225	660.529	660.832	661.136	661.44	661.745	662.048	662.352	662.655	662.959	663.263	663.566	663.871	664.175	664.478	664.782	665.085	665.389	665.692	665.996	666.299	666.602	666.906	667.209	667.514	667.817	668.121	668.424	668.728	669.031	669.334	669.638	669.941	670.244	670.547	670.851	671.154	671.456	671.759	672.062	672.365	672.669	672.972	673.275	673.578	673.881	674.184	674.487	674.791	675.092	675.395	675.698	676.002	676.305	676.608	676.911	677.212	677.515	677.818	678.121	678.424	678.726	679.029	679.332
-20	-20	3.24556	3.27093	3.34829	3.46167	3.51602	3.56624	3.57197	3.53938	3.50942	3.52352	3.53916	3.59143	3.64012	3.70752	3.71414	3.72316	3.72894	3.73613	3.74559	3.75158	3.76139	3.76583	3.77736	3.7681	3.6888	3.66994	3.63957	3.61487	3.61075	3.58698	3.58281	3.57416	3.53655	3.50004	3.4794	3.47189	3.47676	3.46043	3.4252	3.39695	3.35135	3.28967	3.27779	3.26328	3.26128	3.3225	3.37385	3.4174	3.46861	3.49484	3.56152	3.60303	3.6073	3.63398	3.65949	3.67213	3.6353	3.60353	3.58315	3.53617	3.49784	3.4642	3.41701	3.41471	3.4136	3.41663	3.45797	3.5171	3.56631	3.59531	3.61678	3.63125	3.63445	3.63921	3.64861	3.66079	3.63053	3.59031	3.53106	3.52974	3.52024	3.51824	3.49666	3.50945	3.51549	3.53248	3.5582	3.59443	3.5892	3.61933	3.69238	3.6748	3.58638	3.51329	3.44047	3.36423	3.26632	3.26723	3.27313	3.33715	3.37191	3.36122	3.34847	3.3415	3.32266	3.33567	3.33675	3.37909	3.40435	3.42004	3.44853	3.47784	3.50191	3.52111	3.54138	3.58267	3.6321	3.68128	3.70724	3.73021	3.72081	3.69535	3.66969	3.63817	3.61189	3.5827	3.55583	3.53462	3.51013	3.49234	3.47645	3.46834	3.51717	3.53459	3.50215	3.55322	3.65581	3.80304	3.99446	4.12009	4.10993	4.03581	3.99221	3.94538	3.78722	3.56228	3.50369	3.51188	3.51083	3.54227	3.58019	3.62044	3.65532	3.70129	3.70721	3.71107	3.70827	3.69385	3.6833	3.65511	3.6029	3.56241	3.51874	3.48394	3.45664	3.47153	3.45741	3.44799	3.442	3.43444	3.42979	3.42723	3.42429	3.42661	3.42708	3.42494	3.42672	3.37916	3.40533	3.43714	3.47284	3.48775	3.51072	3.51455	3.53841	3.56555	3.59019	3.60445	3.63165	3.68972	3.72746	3.75686	3.77522	3.78271	3.7588	3.73032	3.70051	3.65696	3.6121	3.60455	3.61556	3.63601	3.66823	3.68131	3.70125	3.71288	3.77579	3.83488	3.91569	3.95561	3.96021	3.95224	3.92385	3.91024	3.88884	3.87329	3.85521	3.84065	3.82716	3.81861	3.81146	3.80726	3.82538	3.80212	3.77126	3.73448	3.70643	3.70181	3.69415	3.71387	3.73226	3.75394	3.76445	3.78135	3.79552	3.82038	3.84149	3.87263	3.89506	3.88647	3.87783	3.84719	3.82822	3.82044	3.78572	3.73808	3.71211	3.70403	3.72092	3.74125	3.74152	3.71356	3.70684	3.72467	3.75369	3.76384	3.75045	3.73092	3.7126	3.69198	3.66537	3.60779	3.55113	3.49201	3.40947	3.34895	3.28647	3.19352	3.09712	3.07717	3.14547	3.26186	3.41581	3.58377	3.74532	3.90363	4.04689	4.10875	3.92382	3.73896	3.59767	3.52965	3.42831	3.32994	3.25547	3.17256	3.19205	3.28271	3.36452	3.47839	3.64751	3.7734	3.81901	3.83571	3.79871	3.76682	3.72654	3.69066	3.65081	3.59764	3.55327	3.50509	3.49356	3.48602	3.48339	3.48045	3.48608	3.49302	3.51024	3.50751	3.50117	3.49362	3.48645	3.44918	3.45452	3.46134	3.47141	3.48151	3.4968	3.51125	3.5313	3.54958	3.57577	3.59964	3.62737	3.66245	3.67317	3.68231	3.70707	3.71711	3.71974	3.7183	3.71323	3.65653	3.63247	3.60484	3.5818	3.5559	3.54114	3.52296	3.51154	3.48989	3.48289	3.47058	3.46736	3.45858	3.45937	3.45522	3.48367	3.50447	3.52158	3.53837	3.55614	3.57101	3.58824	3.604	3.61996	3.63473	3.64959	3.66393	3.67766	3.69169	3.70477	3.71967	3.73014	3.74435	3.75021	3.75621	3.75263	3.74561	3.73251	3.6976	3.67296	3.65187	3.62013	3.59101	3.54418	3.50871	3.45985	3.42781	3.44627	3.4855	3.56985	3.68457	3.77038	3.83673	3.88147	3.90215	3.86817	3.84481	3.69774	3.41494	3.18929	3.14438	3.16916	3.53821	3.83076	3.82389	3.83225	3.81925	3.81709	3.80431	3.78457	3.80971	3.81761	3.81091	3.78732	3.75946	3.73273	3.70494	3.67885	3.63666	3.61695	3.61077	3.53543	3.53226	3.52674	3.52779	3.555	3.53438	3.5152	3.46883	3.47526	3.48153	3.50164	3.52026	3.55193	3.58311	3.62318	3.67159	3.82175	3.84703	3.8754	3.89777	3.91428	3.93258	3.90824	3.89947	3.88311	3.87947	3.85523	3.84865	3.83879	3.83287	3.83447	3.83001	3.9013	3.91391	3.93894	3.95149	3.96263	3.98079	4.0053	4.02286	4.01821	4.04338	4.06188	4.10014	4.13102	4.15847	4.19174	4.22005	4.25059	4.27422	4.30054	4.36111	4.4529	4.54146	4.59314	4.64978	4.72004	4.77882	4.88551	5.06521	5.21652	5.01058	4.92279	4.91899	4.99313	5.10977	5.31369	5.77803	6.31111	6.7252	7.10454	7.58612	8.23689	8.87959	9.7972	11.0009	12.4922	14.222	16.4945	19.2763	23.5637	28.6177	33.1137	42.958	45.1638	46.2125	41.3103	37.4301	29.6295	26.0794	22.5469	18.6557	15.7913	13.1635	11.62	10.3773	9.21354	8.43978	7.7879	7.25513	6.79494	6.43098	6.13123	5.87941	5.68632	5.55861	5.23843	5.08612	4.93635	4.81998	4.68915	4.60435	4.5046	4.47099	4.42821	4.34194	4.34132	4.33898	4.34136	4.36049	4.37129	4.33971	4.29931	4.27362	4.24671	4.21142	4.15275	4.06822	3.97442	3.8205	3.61497	3.56131	3.50926	3.54194	3.55138	3.56735	3.58277	3.60313	3.62665	3.65155	3.6813	3.64697	3.60571	3.59895	3.59896	3.62281	3.66359	3.7169	3.7512	3.78044	3.78867	3.79196	3.77841	3.75251	3.73368	3.70405	3.68117	3.64983	3.62361	3.59262	3.56444	3.53728	3.50341	3.48481	3.44778	3.44661	3.44008	3.43424	3.45523	3.52531	3.58935	3.6374	3.69153	3.72509	3.74928	3.77522	3.77448	3.751	3.72534	3.74747	3.75452	3.75913	3.74222	3.73339	3.71086	3.62652	3.54561	3.4757	3.40441	3.33801	3.33846	3.31667	3.28478	3.27427	3.26827	3.26503	3.25895	3.26775	3.25525	3.26387	3.2822	3.3013	3.32621	3.3523	3.38153	3.40197	3.40052	3.34345	3.33738	3.35584	3.3487	3.36405	3.38655	3.4554	3.53304	3.54763	3.55052	3.54386	3.49902	3.46013	3.41018	3.37338	3.31586	3.28835	3.25731	3.2393	3.2129	3.25491	3.40155	3.50848	3.59957	3.64224	3.64739	3.64076	3.62295	3.59985	3.56981	3.53093	3.46307	3.41054	3.3735	3.3312	3.30956	3.27351	3.2671	3.23427	3.20669	3.17994	3.1698	3.15534	3.12974	3.10027	3.07611	3.04323	3.0291	3.01696	3.00902	3.01052	3.01245	3.0238	3.03839	3.05181	3.0674	3.08005	3.1035	3.12516	3.14868	3.17258	3.19843	3.22541	3.2532	3.27867	3.31595	3.32623	3.33878	3.37831	3.41979	3.4558	3.50675	3.54213	3.5535	3.5626	3.56553	3.54671	3.50399	3.46721	3.43383	3.39159	3.40316	3.41173	3.44815	3.47395	3.47989	3.49882	3.52679	3.55349	3.58733	3.58306	3.58181	3.58157	3.57716	3.57342	3.5489	3.53772	3.53567	3.5395	3.52247	3.48375	3.44305	3.39973	3.3513	3.30294	3.2962	3.30069	3.33106	3.36416	3.41	3.4442	3.49362	3.53864	3.60481	3.63745	3.66219	3.65935	3.65898	3.66627	3.64819	3.62639	3.59499	3.55882	3.52308	3.47576	3.41845	3.31198	3.27662	3.24376	3.2288	3.35729	3.40975	3.44407	3.49334	3.5425	3.43822	3.39368	3.36177	3.35398	3.40951	3.38917	3.45068	3.47733	3.43779	3.39464	3.35972	3.33828	3.33267	3.3361	3.35971	3.39127	3.43579	3.48501	3.52125	3.54468	3.48593	3.50472	3.52722	3.54859	3.56332	3.56243	3.54373	3.53506	3.45121	3.36415	3.29636	3.2451	3.19767	3.15974	3.12923	3.11091	3.10281	3.09687	3.11653	3.12844	3.18247	3.23297	3.29657	3.35627	3.4236	3.48863	3.55154	3.58571	3.68643	3.74607	3.8016	3.84846	3.77953	3.27217	3.90495	3.85919	3.81119	3.7276	3.6703	3.61107	3.55716	3.5217	3.48823	3.46893	3.47173	3.40266	3.39385	3.38446	3.42773	3.4349	3.46449	3.49177	3.56187	3.64702	3.65299	3.64805	3.64151	3.61316	3.59425	3.54794	3.51432	3.47215	3.43299	3.40532	3.38674	3.3742	3.37173	3.41328	3.42973	3.43193	3.45259	3.46938	3.48578	3.49243	3.46536	3.45048	3.43494	3.41382	3.40265	3.42547	3.45514	3.51105	3.5683	3.62291	3.70873	3.76299	3.71023	3.6392	3.57164	3.50824	3.47668	3.46036	3.46129	3.53679	3.56325	3.53108	3.47958	3.43646	3.39307	3.41764	3.40987	3.40624	3.39635	3.40738	3.41726	3.43613	3.44894	3.45247	3.48211	3.51413	3.51508	3.52333	3.51766	3.50177	3.48489	3.5002	3.52377	3.5535	3.55581	3.54987	3.5506	3.53986	3.53078	3.54488	3.54961	3.54421	3.55327	3.56897	3.56133	3.54005	3.51873	3.49653	3.4744	3.4464	3.42441	3.40488	3.38625	3.36753	3.3523	3.33392	3.32063	3.30547	3.3156	3.29027	3.2758	3.2209	3.15286	3.09138	3.02363	2.91334	2.85012	2.7829	2.72721	2.6916	2.65911	2.64561	2.64772	2.74593	2.88207	3.02699	3.18648	3.34679	3.49895	3.58948	3.60265	3.60302	3.57764	3.57145	3.57712	3.59126	3.59627	3.54146	3.45887	3.29468	3.13362	2.97764	2.9469	2.94917	3.12097	3.25552	3.32026	3.35207	3.31208	3.26962	3.49139	3.48259	3.45914	3.47065	3.49384	3.48383	3.48025	3.45153	3.41743	3.37881	3.32894	3.30132	3.27524	3.252	3.22941	3.21611	3.19943	3.19199	3.18073	3.17369	3.16487	3.15697	3.14658	3.14025	3.11983	3.10821	3.10461	3.10485	3.10437	3.10478	3.10621	3.10789	3.1144	3.12529	3.13288	3.14925	3.15996	3.17807	3.19159	3.20993	3.22582	3.2437	3.26151	3.27966	3.29913	3.3196	3.34084	3.36151	3.38384	3.40376	3.42689	3.44572	3.46399	3.48173	3.49863	3.48615	3.43021	3.37446	3.32245	3.29661	3.26026	3.19041	3.34114	3.1824
-20	0	4.412	4.45659	4.34521	4.13192	3.97492	3.77909	3.71781	3.6996	3.69881	3.69105	3.57397	3.68448	3.80021	3.88331	3.98731	4.00488	4.02715	4.04948	4.1262	4.16803	4.13102	4.04501	3.80334	3.83779	3.9296	4.02495	4.07237	4.12172	4.16038	4.16061	4.16495	4.16749	4.15412	4.12627	4.12019	4.09957	4.08049	4.06308	4.02735	3.99265	3.94552	3.94774	3.95466	3.88488	3.86324	3.87672	3.91213	3.95062	3.98984	4.08713	4.1342	4.12912	4.13233	4.0987	4.0646	4.02618	3.93358	3.84757	3.76738	3.68916	3.68509	3.71842	3.74928	3.79639	3.83936	3.89701	3.96715	4.01789	4.0931	4.09454	4.09011	4.08633	4.0483	4.02153	3.99005	3.96062	3.92597	3.81487	3.81102	3.81196	3.82122	3.87135	3.87917	3.89762	3.90806	3.89453	3.87979	3.87575	3.86125	3.85203	3.83943	3.83431	3.83185	3.82876	3.82588	3.82522	3.82393	3.82699	3.84573	3.85181	3.85176	3.85063	3.84871	3.84305	3.83992	3.83179	3.8232	3.81453	3.80777	3.80374	3.80028	3.79792	3.80999	3.7857	3.76563	3.71756	3.74467	3.77781	3.78859	3.81192	3.84539	3.85852	3.87102	3.86337	3.86262	3.83771	3.81448	3.78459	3.76414	3.6217	3.54295	3.58683	3.64056	3.6838	3.7023	3.72265	3.74962	3.77639	3.80911	3.83974	3.87768	3.89057	3.93804	3.9489	3.92095	3.82725	3.71602	3.71675	3.73722	3.80447	3.84342	3.82294	3.80391	3.77218	3.7382	3.70077	3.6548	3.60872	3.56958	3.52224	3.46157	3.4076	3.40539	3.41906	3.4377	3.48752	3.53491	3.57292	3.61597	3.65722	3.69246	3.72587	3.74951	3.75547	3.7529	3.7203	3.68287	3.64152	3.60986	3.57873	3.52983	3.5395	3.58532	3.62791	3.67944	3.73685	3.79243	3.84316	3.85088	3.83179	3.81915	3.80431	3.77097	3.74655	3.72861	3.62854	3.66428	3.71314	3.77753	3.8228	3.83611	3.84939	3.86596	3.91622	3.95409	3.98594	4.04346	4.0439	4.0488	4.0612	4.07414	4.09086	4.10768	4.12666	4.14419	4.16423	4.17171	4.16552	4.16266	4.15685	4.15427	4.14665	4.14096	4.13134	4.11155	4.08845	4.06138	4.06167	4.05187	4.04691	4.0385	4.02638	4.01937	4.01259	4.00681	3.99943	4.01453	4.00028	3.98528	3.97392	3.96175	3.95243	3.94255	3.90751	3.86856	3.83396	3.79842	3.7637	3.71889	3.66874	3.61892	3.57309	3.53103	3.49882	3.46376	3.46667	3.45313	3.45095	3.44559	3.46847	3.49808	3.54976	3.64707	3.73866	3.81841	3.85704	3.90669	3.95089	4.00188	4.05346	4.07631	4.12974	4.11818	4.09282	3.99243	3.89242	3.80349	3.72683	3.63164	3.6991	3.76493	3.81782	3.84548	3.87526	3.94878	3.90358	3.8596	3.81659	3.76706	3.71875	3.67981	3.6515	3.64085	3.61991	3.61603	3.58385	3.59736	3.60907	3.60692	3.57976	3.50879	3.54978	3.58801	3.63232	3.67982	3.74189	3.80939	3.87532	3.94031	4.00278	4.03601	3.96873	3.86941	3.78187	3.68454	3.60197	3.52597	3.4625	3.46409	3.5074	3.54541	3.61372	3.66839	3.66735	3.62211	3.53041	3.5052	3.52372	3.54479	3.56999	3.58929	3.61045	3.62757	3.64456	3.6537	3.6395	3.62066	3.57184	3.53215	3.4874	3.43313	3.43194	3.43194	3.45305	3.5052	3.52791	3.58605	3.63976	3.69656	3.80422	3.89461	3.91512	3.94123	3.9706	3.98939	4.01315	4.02413	4.00955	3.99744	3.95836	3.8856	3.86395	3.85159	3.83407	3.82716	3.81633	3.81366	3.78004	3.75533	3.72383	3.68502	3.63445	3.62535	3.61921	3.63011	3.62451	3.63456	3.64475	3.63092	3.62573	3.6338	3.60462	3.56643	3.55346	3.59021	3.62138	3.65349	3.68782	3.73109	3.77527	3.81859	3.86132	3.90176	3.94835	3.9591	3.96313	3.96431	3.96091	3.95107	3.94	3.92425	3.9096	3.8898	3.88436	3.87766	3.87425	3.87077	3.86858	3.86995	3.88924	3.90216	3.91512	3.93085	3.94273	3.95605	3.96693	3.97177	3.97966	3.98736	3.98209	3.97541	3.94216	3.92714	3.9035	3.8843	3.86088	3.83451	3.82005	3.80788	3.80901	3.81495	3.89613	3.99186	4.02604	4.03422	4.05612	3.90904	3.80007	3.69698	3.59417	3.91414	4.02284	4.00722	3.99506	3.98521	3.93158	3.88781	3.9541	4.0217	4.05783	4.10487	4.25697	4.33857	4.43233	4.54915	4.7127	4.88207	5.05711	5.2394	5.41215	5.57992	5.6106	5.71015	5.80904	5.91578	6.06245	6.20344	6.27682	6.31149	6.32305	6.29485	6.26925	6.25886	6.34244	6.57092	6.8282	7.14345	7.53594	7.90698	8.43386	9.04708	9.65107	10.4129	11.5668	12.6232	13.93	15.3898	17.1246	19.1488	21.9362	25.4313	30.9807	38.4134	47.3741	57.647	69.4863	78.0307	92.5257	93.2331	81.0824	72.2501	60.0954	50.5908	44.6887	32.1432	26.0106	22.0254	19.1785	16.9189	14.9921	13.2818	11.9053	10.8083	9.5369	8.73009	8.10864	7.71834	7.67257	7.44952	6.88232	6.64841	6.38619	6.15949	6.0007	5.86687	5.74811	5.50864	5.35851	5.15418	4.96037	4.94147	4.94359	4.95621	4.97716	5.02514	5.05157	5.05723	4.99835	4.90818	4.78943	4.66844	4.57151	4.48355	4.40006	4.32268	4.24861	4.18503	4.13098	4.0658	4.03272	4.01827	4.03713	4.03167	4.04116	4.0521	4.06842	4.07782	4.09648	4.10323	4.09089	4.07462	4.07544	4.0882	4.12153	4.16519	4.21656	4.27037	4.32425	4.31342	4.26571	4.22195	4.12705	4.06198	3.97238	3.89365	3.80952	3.78786	3.80876	3.84359	3.86698	3.91847	3.96447	3.96513	3.94548	3.92996	3.91301	3.90056	3.88567	3.87604	3.86241	3.8557	3.84351	3.83691	3.82903	3.82208	3.7868	3.76039	3.72803	3.70138	3.67834	3.6632	3.66118	3.6762	3.69763	3.71384	3.73941	3.75252	3.75836	3.73415	3.74214	3.74313	3.73798	3.62904	3.55482	3.48772	3.43083	3.4227	3.50563	3.59162	3.74856	3.7658	3.74366	3.7242	3.72213	3.63359	3.58141	3.54123	3.50503	3.47478	3.45348	3.42604	3.47012	3.48209	3.54218	3.59282	3.64293	3.6948	3.74429	3.78266	3.8177	3.79337	3.78174	3.76373	3.75137	3.73305	3.69488	3.62391	3.58506	3.55776	3.52961	3.50768	3.50834	3.51161	3.50491	3.50744	3.50122	3.49584	3.49313	3.50627	3.51687	3.53243	3.5467	3.56358	3.57976	3.59746	3.61438	3.63228	3.65213	3.67103	3.6891	3.70646	3.72249	3.73715	3.75004	3.74964	3.72429	3.70458	3.69641	3.68228	3.66964	3.65808	3.64448	3.6313	3.61921	3.60459	3.59093	3.55914	3.52156	3.48511	3.43095	3.41554	3.40177	3.392	3.38696	3.42657	3.44393	3.45872	3.47104	3.4956	3.49985	3.48201	3.49664	3.51594	3.53424	3.56673	3.60157	3.6181	3.65459	3.6896	3.71006	3.7355	3.73671	3.72892	3.72066	3.70492	3.6774	3.64932	3.62054	3.59444	3.55853	3.50042	3.46185	3.43363	3.41037	3.39375	3.46312	3.5155	3.55186	3.56511	3.59334	3.61618	3.62945	3.56589	3.52889	3.48948	3.43358	3.3939	3.37173	3.36571	3.39075	3.40761	3.44932	3.47721	3.49947	3.53007	3.5331	3.50754	3.48409	3.44726	3.40934	3.37963	3.35679	3.33141	3.31218	3.30854	3.30283	3.30511	3.30976	3.31411	3.38385	3.41407	3.44602	3.42849	3.47526	3.51763	3.56389	3.58452	3.60125	3.61503	3.62627	3.62945	3.62264	3.61768	3.59989	3.58671	3.56092	3.55065	3.53766	3.53227	3.52209	3.53263	3.54335	3.58161	3.58645	3.64598	3.69271	3.73795	3.76743	3.75691	3.8166	3.81171	3.80832	3.79505	3.78911	3.74542	3.70674	3.65809	3.58688	3.55553	3.48522	3.39796	3.25248	3.24118	3.26613	3.30729	3.34976	3.39136	3.44207	3.49314	3.54451	3.596	3.6319	3.61661	3.59715	3.56682	3.5425	3.51511	3.48978	3.46375	3.43854	3.42082	3.39557	3.38097	3.36209	3.3491	3.33828	3.33377	3.33217	3.33434	3.3364	3.39609	3.44057	3.48346	3.52941	3.57792	3.62439	3.88298	3.93149	3.92801	3.86668	3.75176	3.64488	3.55403	3.48531	3.43926	3.40884	3.40264	3.40359	3.44233	3.49705	3.50619	3.51708	3.47347	3.47915	3.45091	3.41679	3.38167	3.33375	3.24753	3.16136	3.13354	3.1521	3.18387	3.23545	3.30706	3.39089	3.45763	3.46994	3.46815	3.45887	3.45998	3.4539	3.39733	3.37709	3.3316	3.29656	3.16006	3.2546	3.3447	3.43051	3.17757	3.20661	3.37377	3.29923	3.18961	3.07396	3.16899	3.32013	3.489	3.6317	3.75834	3.82819	3.77655	3.72112	3.68888	3.72984	3.6721	3.61217	3.56042	3.50162	3.49231	3.47129	3.44341	3.41463	3.36446	3.32293	3.32236	3.38963	3.42028	3.45642	3.48709	3.51453	3.53593	3.55138	3.54181	3.50544	3.49713	3.48654	3.4421	3.45485	3.46162	3.45518	3.44237	3.42017	3.40508	3.43716	3.47277	3.5064	3.53795	3.56996	3.59864	3.63002	3.6522	3.64092	3.61329	3.62061	3.62559	3.63487	3.66611	3.68757	3.71141	3.73492	3.75635	3.77785	3.79696	3.81215	3.82693	3.83661	3.84622	3.85158	3.86321	3.86824	3.86131	3.83693	3.81276	3.79333	3.76338	3.72988	3.69682	3.65876	3.6219	3.58248	3.54305	3.5021	3.47053	3.43309	3.40814	3.38076	3.35632	3.33717	3.34269	3.33734	3.32939	3.32583	3.31895	3.31734	3.31465	3.30944	3.30817	3.30106	3.32194	3.3494	3.35188	3.35288	3.40378	3.4206	3.42208	3.43017	3.43896	3.44544	3.44805	3.45298	3.45283	3.43193	3.41083	3.35411	3.31871	3.28026	3.24211	3.21314	3.19126	3.19494	3.18535	3.18225	3.20624	3.22709	3.24253	3.26165	3.2821	3.30551	3.328	3.35614	3.38145	3.41345	3.44112	3.47532	3.50715	3.54316	3.57491	3.58014	3.49218	3.3908	3.29854	3.40433
-20	20	2.48794	3.42031	3.72598	3.61017	3.65967	3.76749	3.85786	3.96861	4.0969	4.24769	4.28135	4.28195	4.08986	3.93114	3.81268	3.71101	3.6259	3.57082	3.58476	3.68247	3.73417	3.7806	3.89799	4.05904	4.18365	4.25845	4.22863	4.3507	4.3057	4.28832	4.22921	4.11415	4.00296	3.89842	3.83183	3.78129	3.72654	3.70669	3.70219	3.72342	3.76269	3.80082	3.85503	3.91525	3.99801	4.07756	4.11002	4.08781	4.06099	3.98811	3.84299	3.65244	3.51441	3.39957	3.30029	3.2999	3.27827	3.25639	3.25005	3.26079	3.3336	3.40867	3.47935	3.5398	3.59785	3.67985	3.72047	3.75872	3.79697	3.8294	3.84913	3.85094	3.82739	3.82149	3.82527	3.83529	3.80669	3.7904	3.77709	3.73953	3.67667	3.61631	3.5807	3.53639	3.52254	3.58037	3.61339	3.61018	3.66615	3.81822	3.96455	4.04146	4.08894	4.12269	4.12003	3.95416	3.8485	3.68646	3.64888	3.64573	3.85832	3.98379	4.07121	4.03431	4.0077	4.02017	4.0198	4.0044	4.00711	3.98573	3.9706	3.98343	3.96919	3.98786	3.97558	3.94879	3.90391	3.84361	3.81996	3.75361	3.73505	3.65595	3.61706	3.55296	3.52265	3.52218	3.54635	3.57693	3.54132	3.55975	3.59747	3.60585	3.57146	3.55018	3.53218	3.48824	3.47347	3.47357	3.46574	3.41479	3.42129	3.41871	3.4843	3.50631	3.51373	3.51412	3.50625	3.49768	3.48973	3.52599	3.59865	3.65445	3.72124	3.77981	3.79939	3.75925	3.77588	3.7651	3.72923	3.67624	3.61714	3.57002	3.54297	3.50304	3.49507	3.49442	3.48761	3.52719	3.58122	3.63433	3.63932	3.64645	3.66436	3.6978	3.83322	3.84016	3.83538	3.82615	3.81099	3.76986	3.71232	3.68351	3.65178	3.56885	3.53732	3.44054	3.38142	3.36184	3.41839	3.4404	3.49847	3.51819	3.53797	3.5028	3.45978	3.39545	3.43122	3.50102	3.66448	3.82542	3.96924	4.07871	4.09966	4.04056	4.00547	4.00271	3.96342	3.90248	3.85249	3.82407	3.80187	3.893	3.89353	3.89528	3.89585	3.86453	3.87278	3.90659	3.93343	3.94531	3.96612	3.98438	3.99023	3.98271	3.97425	3.9624	3.93892	3.93971	3.97047	3.98138	4.00072	4.01056	4.0241	4.01147	4.02227	4.00203	4.05034	4.07279	4.09357	4.13386	4.17492	4.15875	4.1516	4.13632	4.12652	4.13385	4.13084	4.13473	4.12546	4.07463	4.01573	3.98017	3.95168	3.93576	3.93665	3.93678	3.94499	3.97878	3.99848	3.9949	3.95972	3.88732	3.80153	3.699	3.62221	3.52543	3.43382	3.40846	3.33826	3.2885	3.29475	3.34471	3.36781	3.38791	3.43064	3.46349	3.49017	3.48685	3.51614	3.59738	3.64944	3.65805	3.65092	3.67906	3.71479	3.71596	3.70389	3.70007	3.66477	3.65339	3.62964	3.64133	3.67301	3.70059	3.72326	3.72348	3.77466	3.81355	3.85092	3.83394	3.82843	3.80878	3.7756	3.747	3.70382	3.64931	3.49588	3.56804	3.59258	3.65105	3.72081	3.80638	3.88693	3.96976	4.05434	4.05747	4.03421	3.99603	3.91979	3.81409	3.72965	3.68054	3.64405	3.60347	3.56447	3.55018	3.57903	3.55994	3.53914	3.47416	3.51427	3.52251	3.51195	3.46305	3.36938	3.28463	3.20288	3.16752	3.14813	3.14136	3.12251	3.11679	3.14143	3.16922	3.1867	3.17502	3.21878	3.31841	3.39285	3.46085	3.56591	3.59231	3.60746	3.63789	3.63531	3.655	3.70587	3.72032	3.68031	3.62342	3.57527	3.54225	3.53724	3.47921	3.41139	3.39754	3.44483	3.51464	3.56289	3.62435	3.68019	3.71092	3.77794	3.90226	3.96075	3.9873	4.03409	4.10356	4.14991	4.13657	4.11347	4.10248	4.09643	4.07543	4.02895	3.97119	3.90066	3.83371	3.7735	3.73807	3.69126	3.68954	3.70406	3.73307	3.73532	3.74706	3.7448	3.78911	3.82616	3.84629	3.8728	3.89712	3.88728	3.88907	3.88315	3.84561	3.82286	3.8055	3.7723	3.75432	3.7634	3.78345	3.76651	3.71176	3.61457	3.57054	3.52705	3.48815	3.46607	3.47232	3.47488	3.50833	3.57106	3.59616	3.55718	3.5263	3.55764	3.62336	3.65363	3.68561	3.78053	3.8433	3.91364	3.96036	4.0315	4.0941	4.16183	4.1743	4.1948	4.22538	4.24581	4.24605	4.20128	4.13015	4.0984	4.15912	4.22067	4.24994	4.25352	4.29238	4.36588	4.46406	4.54799	4.6235	4.74291	4.84181	4.9453	5.05549	5.16694	5.25013	5.34759	5.43033	5.52205	5.58858	5.68712	5.83032	5.9671	6.08824	6.20781	6.33924	6.53598	6.67293	6.93432	7.13554	7.46573	7.71707	8.13296	8.4846	9.16779	9.66812	10.2186	10.8553	11.4584	12.354	13.5436	14.7732	16.4786	18.7177	21.3946	25.3193	29.5417	36.9114	43.3104	56.3962	66.6673	80.4266	97.4715	105.181	117.883	109.532	91.8538	74.0004	62.47	55.0975	40.2309	28.6559	26.1315	25.7774	21.4386	17.7045	14.1531	14.3468	12.8711	11.6592	10.6468	9.9486	9.21984	8.66981	8.11772	7.72071	7.18557	6.91171	6.72494	6.57472	6.453	6.30507	6.13322	5.99677	5.82819	5.69298	5.44708	5.34888	5.20793	5.04763	4.95397	4.93241	4.91865	5.0972	5.10206	5.03614	4.95089	4.88908	4.80175	4.43139	4.1884	3.97824	3.85468	3.839	3.85579	3.84876	3.92524	3.91197	3.86396	3.84138	3.76435	3.67878	3.74324	3.85294	3.92067	4.0029	4.06301	4.06809	4.09169	4.04846	4.07121	4.06584	4.04794	4.04737	4.05709	4.05575	4.06441	4.05346	4.03415	4.03812	4.00774	3.96225	3.9641	3.9918	4.00712	4.00493	4.03179	4.05772	4.06742	4.03643	3.97475	3.87777	3.75416	3.65642	3.55654	3.56961	3.58292	3.67396	3.69452	3.78871	3.88498	4.0138	4.09738	4.06701	4.05111	3.98553	3.91098	3.87593	3.86174	3.8722	3.79585	3.73874	3.67086	3.64438	3.60228	3.58153	3.43286	3.33981	3.25463	3.12954	3.31531	3.27883	3.23337	3.228	3.22856	3.28459	3.31878	3.32459	3.37756	3.39712	3.45793	3.49724	3.54132	3.56852	3.57875	3.55453	3.55515	3.5259	3.57808	3.76664	3.80093	3.78496	3.72093	3.63273	3.59668	3.56773	3.45767	3.33082	3.28175	3.23441	3.27338	3.25692	3.27336	3.30491	3.33268	3.37546	3.4085	3.43991	3.50909	3.55068	3.59542	3.60107	3.61212	3.60012	3.56367	3.54867	3.46654	3.37224	3.29836	3.23002	3.20928	3.20818	3.22952	3.28736	3.39318	3.43355	3.42847	3.4433	3.4435	3.31545	3.24758	3.20348	3.1713	3.19228	3.21492	3.24985	3.29897	3.30959	3.3058	3.29362	3.3223	3.32878	3.3762	3.39323	3.39197	3.39834	3.39916	3.42124	3.44554	3.49177	3.46305	3.50527	3.52417	3.56202	3.5466	3.53079	3.51604	3.46578	3.45084	3.42858	3.43213	3.37036	3.29835	3.23743	3.20553	3.18203	3.18637	3.19534	3.22565	3.2835	3.40266	3.52253	3.62608	3.67734	3.74376	3.80537	3.81163	3.76093	3.68469	3.59013	3.44666	3.28201	3.1636	3.05991	3.02805	3.01656	3.03171	3.09178	3.23572	3.33859	3.39421	3.46407	3.54147	3.60458	3.62641	3.57647	3.5281	3.44253	3.37926	3.3448	3.27557	3.22623	3.21683	3.24791	3.28043	3.29892	3.28334	3.3076	3.34446	3.38465	3.42026	3.4971	3.5406	3.5239	3.4956	3.48541	3.47966	3.4449	3.46782	3.46783	3.492	3.52089	3.5477	3.56161	3.60808	3.62235	3.65192	3.66384	3.64821	3.65253	3.65609	3.66417	3.68758	3.71228	3.72372	3.71617	3.70092	3.71694	3.69615	3.69413	3.7034	3.70835	3.71179	3.69664	3.70699	3.68883	3.68844	3.66313	3.64383	3.63435	3.583	3.56328	3.53892	3.53835	3.52293	3.49328	3.49374	3.50636	3.52424	3.51383	3.49032	3.45798	3.3617	3.26717	3.23724	3.20857	3.17838	3.1756	3.18371	3.18678	3.2023	3.24152	3.31983	3.3933	3.43187	3.48905	3.54632	3.59276	3.6083	3.59205	3.55378	3.52286	3.49028	3.4706	3.51152	3.54655	3.58704	3.57218	3.58422	3.586	3.59127	3.60312	3.61616	3.63888	3.66297	3.6947	3.71231	3.75635	3.77399	3.78507	3.80288	3.82009	3.84904	3.87247	3.86125	3.81947	3.83955	3.81566	3.76755	3.6653	3.55622	3.4431	3.38152	3.31871	3.2649	3.23573	3.20763	3.16874	3.13186	3.15	3.18388	3.22067	3.29266	3.36268	3.40294	3.46376	3.49902	3.58531	3.63933	3.67073	3.72177	3.76084	3.7384	3.6511	3.51843	3.4666	3.43688	3.37557	3.34158	3.34257	3.40231	3.44997	3.45069	3.43623	3.40914	3.48817	3.48273	3.49997	3.53816	3.59176	3.64446	3.59762	3.44358	3.3025	3.22341	3.20409	3.37284	3.34069	3.37717	3.44127	3.44778	3.4268	3.41725	3.4258	3.45032	3.50763	3.53089	3.5233	3.52375	3.53061	3.57539	3.68291	3.64274	3.62411	3.5833	3.54679	3.55971	3.58451	3.64457	3.62658	3.58492	3.55404	3.53429	3.49872	3.48547	3.4524	3.45312	3.49658	3.53427	3.55012	3.57199	3.58324	3.61037	3.65262	3.66756	3.68842	3.70505	3.70419	3.61136	3.48608	3.39978	3.32052	3.23349	3.18167	3.20161	3.23444	3.35968	3.42313	3.49237	3.5422	3.58365	3.63576	3.6603	3.65034	3.63764	3.61977	3.60792	3.53017	3.37882	3.30135	3.2771	3.27351	3.28852	3.38865	3.4546	3.54095	3.59706	3.63685	3.66002	3.67939	3.70646	3.68449	3.70929	3.69846	3.70415	3.6921	3.69133	3.65207	3.59069	3.52839	3.44568	3.3776	3.38923	3.40604	3.43587	3.48771	3.55093	3.6292	3.6254	3.64264	3.64423	3.64961	3.60662	3.58974	3.58326	3.5687	3.5363	3.50575	3.49065	3.45398	3.40928	3.379	3.3151	3.24428	3.17291	3.10654	3.07915	3.04279	3.14057	3.15318	3.22298	3.21345	3.18348	3.26807	3.36085	3.48225	3.58376	3.69807	3.78139	3.79261
0	-20	3.32622	3.49358	3.726	3.947	4.18756	4.31702	4.19681	3.91245	4.01403	4.09974	4.18137	4.1667	4.12918	4.11295	4.10002	4.10807	4.0174	3.91976	3.83255	3.75212	3.64891	3.60024	3.56197	3.54085	3.53158	3.53846	3.55644	3.58734	3.62933	3.66796	3.68017	3.69405	3.65478	3.63435	3.61862	3.62811	3.65379	3.67922	3.71129	3.76516	3.81141	3.85237	3.8739	3.8899	3.87045	3.87445	3.90206	3.92537	3.93517	3.95727	4.02024	4.07664	4.13309	4.1914	4.26031	4.3527	4.40025	4.42971	4.39021	4.15791	4.12734	4.10221	4.09812	4.09589	4.07463	4.02955	3.97898	3.92176	3.85892	3.82449	3.80888	3.80709	3.80888	3.82998	3.85256	3.88584	3.91521	3.94981	3.93271	3.90264	3.87424	3.84564	3.8187	3.78646	3.77257	3.75258	3.74006	3.69816	3.63222	3.60464	3.58248	3.57707	3.59349	3.60821	3.62821	3.64626	3.67994	3.7115	3.73681	3.76709	3.81148	3.83781	3.86533	3.91271	3.93652	3.95404	3.99298	4.00524	4.05346	4.08319	4.06687	4.05141	4.02718	4.00091	3.97576	3.9499	3.90416	3.85864	3.80815	3.75791	3.7088	3.65913	3.6132	3.58836	3.53928	3.48118	3.4304	3.38801	3.36251	3.52415	3.61172	3.67061	3.74039	3.81532	3.89342	3.96973	4.03842	4.10873	4.1368	4.15173	4.15907	4.10312	3.96499	3.83769	3.68584	3.54977	3.41249	3.29128	3.17383	3.12799	3.18372	3.25067	3.33045	3.42131	3.50802	3.60926	3.70111	3.86891	3.92838	3.97812	4.00397	3.99938	3.94911	3.92123	3.90104	3.86707	3.86757	3.85952	3.86977	3.87308	3.88501	3.8927	3.90826	3.91933	3.93601	3.94883	3.97368	3.98906	4.0046	4.01964	4.03402	4.04216	4.03689	4.03213	4.025	4.01877	4.01037	4.00311	3.99424	3.98657	3.97787	3.97036	3.9624	3.95551	3.94873	3.94287	3.93777	3.9333	3.93013	3.92763	3.92603	3.92535	3.91128	3.89218	3.85909	3.85575	3.84081	3.84201	3.88794	3.83042	3.84114	3.87674	3.9136	3.90117	3.93063	3.9113	3.92645	3.91959	3.93853	3.93921	3.95527	3.98128	4.01342	4.0168	4.01865	4.01798	4.00943	3.96561	3.90082	3.88418	3.86779	3.89409	3.90873	3.91898	3.95291	3.96866	3.98761	3.97507	3.95782	3.93623	3.91445	3.88986	3.86332	3.8362	3.80484	3.7764	3.73734	3.70469	3.64459	3.62328	3.60534	3.59088	3.58004	3.5728	3.55992	3.56849	3.59554	3.60485	3.6197	3.63487	3.64517	3.66114	3.67239	3.69991	3.71185	3.72329	3.73325	3.74126	3.74855	3.75252	3.75643	3.75551	3.74684	3.70685	3.71882	3.70352	3.69105	3.67342	3.65543	3.63752	3.62158	3.6042	3.58827	3.57233	3.5574	3.54378	3.53073	3.52015	3.50969	3.5027	3.49827	3.49586	3.49549	3.49704	3.50047	3.5056	3.51235	3.52059	3.53014	3.54083	3.55151	3.56345	3.57506	3.58856	3.60057	3.61493	3.62651	3.64092	3.65116	3.66471	3.6727	3.68421	3.66757	3.64673	3.62403	3.60577	3.58489	3.58373	3.52468	3.47185	3.48566	3.49615	3.51293	3.56561	3.5672	3.5693	3.57225	3.57446	3.57016	3.55697	3.54997	3.54351	3.54162	3.53107	3.54893	3.56804	3.58633	3.6083	3.63075	3.65621	3.71183	3.73664	3.76051	3.78365	3.80517	3.77743	3.72027	3.67323	3.61994	3.56484	3.51054	3.49929	3.52406	3.55097	3.59101	3.62441	3.66317	3.70215	3.7415	3.78131	3.8073	3.81044	3.81119	3.8006	3.80602	3.8115	3.82221	3.82187	3.82934	3.82686	3.84167	3.86211	3.95524	4.01443	4.10172	4.16786	4.2212	4.26871	4.24461	4.2123	4.16487	4.07473	4.01059	3.95363	3.89335	3.81471	3.7806	3.74955	3.72391	3.72711	3.76522	3.79212	3.80588	3.82387	3.84922	3.85824	3.86521	3.87528	3.88258	3.89213	3.8961	3.91629	3.93197	3.95607	3.97361	3.9943	4.01854	4.04309	4.06704	4.08551	4.10682	4.11258	4.09277	4.07036	4.05056	4.00548	3.96766	3.92351	3.95761	4.00531	4.06435	4.12275	4.18719	4.2506	4.33942	4.35601	4.36459	4.36997	4.34596	4.3413	4.33873	4.33455	4.3335	4.33055	4.33515	4.3342	4.34145	4.36371	4.38338	4.40193	4.42046	4.44433	4.46673	4.48849	4.52767	4.53061	4.52122	4.50767	4.49939	4.47713	4.47042	4.46235	4.46191	4.46869	4.48123	4.51914	4.62647	4.73683	4.88259	5.058	5.27183	5.49801	5.73687	5.98432	6.23375	6.49229	6.74102	6.99626	7.17696	7.35977	7.53832	7.67099	7.83488	7.98079	8.15979	8.4328	8.81946	9.23821	9.72464	10.3199	11.1457	12.014	13.0442	14.3153	15.8453	17.2871	19.0168	21.5401	24.1242	27.2955	33.5917	43.5875	48.613	58.135	70.4112	93.0227	113.443	127.189	144.285	138.684	123.534	108.871	81.2946	65.5932	51.9638	43.8128	39.8788	28.9014	27.1503	24.0004	20.9473	18.1474	16.2777	14.6263	13.6529	12.9975	11.7789	10.8017	10.036	9.38601	8.85834	8.32156	8.05204	7.81609	7.6049	7.4063	7.21055	7.03375	6.82622	6.67081	6.48482	6.30288	6.126	5.9566	5.79354	5.6393	5.49143	5.37067	5.23167	5.09426	4.96888	4.85049	4.74994	4.63267	4.58186	4.54044	4.50521	4.48191	4.4669	4.45149	4.44137	4.42846	4.39216	4.34375	4.36735	4.39292	4.41947	4.44623	4.47845	4.49553	4.51115	4.49825	4.48586	4.46628	4.44845	4.4405	4.42717	4.38809	4.34588	4.30318	4.25882	4.21448	4.1705	4.12723	4.09326	4.05978	4.02583	3.99193	3.96089	3.90754	3.86262	3.81397	3.77555	3.73284	3.6986	3.67615	3.6492	3.63157	3.61277	3.61634	3.59191	3.59832	3.6099	3.62366	3.64265	3.66237	3.68682	3.71125	3.7388	3.76407	3.78745	3.79561	3.76178	3.68712	3.6113	3.56793	3.56642	3.58199	3.58848	3.62853	3.66863	3.7324	3.77892	3.80681	3.82122	3.8189	3.80472	3.78929	3.77555	3.75848	3.7408	3.72275	3.70456	3.68645	3.66898	3.65034	3.63247	3.61529	3.59733	3.57669	3.55284	3.53313	3.5152	3.4991	3.48489	3.47273	3.46327	3.4629	3.4703	3.46892	3.46178	3.46777	3.46397	3.45929	3.45686	3.45352	3.45239	3.45069	3.45086	3.45123	3.45108	3.45309	3.45355	3.44919	3.45791	3.46233	3.47113	3.45845	3.49709	3.54125	3.58653	3.63708	3.68914	3.74394	3.72353	3.68815	3.64636	3.62524	3.59563	3.57375	3.5464	3.52268	3.51309	3.51731	3.53918	3.54761	3.55059	3.56851	3.54042	3.51197	3.50612	3.49704	3.4789	3.46373	3.44775	3.43297	3.41617	3.35692	3.31619	3.26646	3.23402	3.16637	3.15287	3.17535	3.18314	3.1884	3.20902	3.26618	3.30311	3.32862	3.37997	3.41114	3.44901	3.46116	3.47096	3.48276	3.48727	3.49889	3.43877	3.42129	3.39709	3.39721	3.39108	3.36037	3.38445	3.40302	3.43209	3.43274	3.43737	3.41357	3.38479	3.35322	3.33125	3.31689	3.3714	3.35953	3.34222	3.31558	3.36008	3.36518	3.36459	3.37533	3.39007	3.28707	3.1856	3.01548	2.94757	2.99477	3.05572	3.11166	3.15538	3.22014	3.23902	3.25027	3.27988	3.29386	3.30882	3.3041	3.32064	3.33586	3.35847	3.3687	3.3855	3.40411	3.43197	3.46832	3.51409	3.55692	3.59778	3.63534	3.63554	3.64049	3.65538	3.66926	3.68151	3.67651	3.70604	3.7174	3.70239	3.67729	3.64497	3.63906	3.65561	3.63638	3.62125	3.60628	3.58312	3.60164	3.64033	3.63074	3.65322	3.68235	3.68483	3.69276	3.67626	3.60594	3.54929	1.74712	3.86057	3.88451	3.68267	3.52353	3.59233	3.6591	3.69904	3.71776	3.52316	3.54673	3.56466	3.57632	3.51498	3.47346	3.4297	3.50328	3.55283	3.58571	3.61397	3.64182	3.65743	3.66633	3.67715	3.68486	3.69533	3.70235	3.71216	3.71822	3.72728	3.73265	3.74066	3.7506	3.75712	3.76232	3.71095	3.67727	3.66136	3.65079	3.66102	3.68855	3.72942	3.78908	3.79723	3.79852	3.78429	3.78142	3.77474	3.76955	3.76148	3.75393	3.72815	3.72539	3.70956	3.69494	3.69602	3.69088	3.68106	3.66833	3.65664	3.64147	3.63907	3.63465	3.63467	3.63611	3.63967	3.64674	3.69077	3.71226	3.72269	3.62194	3.58467	3.54998	3.54059	3.54083	3.56581	3.63693	3.60708	3.61351	3.56458	3.52259	3.67939	3.7056	3.72276	3.75112	3.78071	3.80009	3.80829	3.81974	3.83112	3.79069	3.77554	3.51001	3.63336	3.57759	3.56603	3.54532	3.50309	3.45885	3.44521	3.40555	3.44841	3.45161	3.48701	3.57185	3.63751	3.65645	3.67553	3.69604	3.70731	3.68766	3.66827	3.64912	3.63124	3.61324	3.59737	3.58103	3.5675	3.55316	3.54216	3.53001	3.52158	3.51167	3.50567	3.49794	3.49416	3.48847	3.48663	3.48575	3.48568	3.48629	3.48743	3.48901	3.49092	3.47992	3.43856	3.43199	3.42419	3.42373	3.44126	3.45245	3.4627	3.47674	3.49182	3.5067	3.5195	3.52756	3.53103	3.53553	3.5397	3.54397	3.54988	3.54826	3.5538	3.56029	3.55622	3.5499	3.54285	3.53637	3.53105	3.52562	3.52278	3.52028	3.52068	3.51937	3.53761	3.5565	3.57658	3.62469	3.6643	3.69538	3.73122	3.7603	3.78517	3.79513	3.80209	3.80615	3.73534	3.67467	3.61486	3.56138	3.49226	3.43239	3.36703	3.3343	3.33432	3.32419	3.33643	3.34979	3.371	3.39161	3.41191	3.43169	3.44882	3.44933	3.41604	3.37644	3.35801	3.33903	3.32743	3.31791	3.37372	3.3893	3.40875	3.43111	3.45376	3.46293	3.42461	3.37669	3.32844	3.28706	3.24478	3.22015	3.25377	3.29131	3.32229	3.36869	3.41637	3.47079	3.51871	3.57137	3.60584	3.63257	3.60389	3.60972	3.58339	3.56072	3.5174	3.45021	3.38675	3.32721	3.27452	3.26099	3.40306	3.37658	3.44794	4.12346
0	0	4.25599	4.21003	4.19965	4.17792	4.15143	4.12852	4.12485	4.07038	4.09095	4.11875	4.14031	4.16654	4.18925	4.22842	4.25141	4.27354	4.23458	4.18966	4.14606	4.08648	4.01756	4.01574	4.01809	4.00611	4.02993	4.03165	4.03478	4.03818	4.03841	4.04061	4.03771	4.03893	4.03519	4.02132	4.02633	3.98951	3.98749	3.98325	3.97971	3.98423	3.99562	3.99597	4.00269	4.01126	4.03288	4.04923	4.06683	4.10903	4.15379	4.14714	4.13175	4.12686	4.11936	4.11706	4.10561	4.09511	4.08645	4.06782	4.04248	4.02445	3.99839	3.97625	3.95021	3.91685	3.88751	3.84733	3.80325	3.74652	3.73113	3.70309	3.71235	3.72627	3.76505	3.8262	3.8547	3.88808	3.93224	3.9644	4.00454	4.04832	4.08302	4.1394	4.14998	4.15615	4.11526	4.08436	4.05008	4.01309	3.97805	3.94481	3.91572	3.88783	3.87044	3.88848	3.90556	3.89389	3.88589	3.87829	3.77027	3.79223	3.84068	3.89101	3.92428	3.93985	3.95145	3.96232	3.97351	3.98477	3.99568	4.00713	4.01763	4.02793	4.00596	3.98366	3.95965	3.94357	3.92548	3.93001	3.93826	3.95817	3.99414	4.02625	4.0408	4.03515	4.02364	4.02016	4.02342	3.9986	3.96233	3.93486	3.90834	3.88443	3.8641	3.84497	3.83111	3.82106	3.81538	3.81057	3.80945	3.81088	3.85952	3.87397	3.8866	3.90239	3.87384	3.84424	3.78911	3.78103	3.80078	3.82351	3.8393	3.86456	3.8876	3.90866	3.92826	3.94693	3.96564	4.01154	4.01042	4.00912	4.00943	3.9787	3.78005	3.87709	3.90344	3.87473	3.84557	3.81589	3.79392	3.76844	3.72949	3.72347	3.71759	3.7195	3.72253	3.73189	3.77323	3.82584	3.86469	3.91707	3.9403	3.95799	3.98023	3.98027	3.99899	3.99537	3.99003	3.98177	3.9687	3.95934	3.95061	3.9417	3.93232	3.92479	3.91667	3.89772	3.85561	3.82091	3.78354	3.7813	3.75655	3.74226	3.72949	3.72271	3.71632	3.70942	3.70944	3.71172	3.72403	3.72472	3.76505	3.79889	3.84703	3.89536	3.94839	3.99711	4.05096	4.10808	4.15674	4.20963	4.26815	4.31759	4.31114	4.29832	4.2847	4.21107	4.15451	4.09061	4.00104	3.94218	3.88057	3.83127	3.78527	3.74206	3.79674	3.80759	3.81532	3.83373	3.85689	3.87706	3.89966	3.92631	3.94808	3.98101	4.00792	4.04727	4.08624	4.13465	4.07237	3.9948	3.86666	3.84308	3.84846	3.8622	3.89582	3.92289	3.94473	3.98828	4.04482	4.09749	4.12711	4.13828	4.14751	4.15728	4.1838	4.19654	4.21975	4.20266	4.19244	4.16218	4.14199	4.10654	4.077	4.0345	3.99606	3.93806	3.86662	3.82825	3.81729	3.81518	3.81023	3.81635	3.8198	3.87894	3.88965	3.93647	3.93565	3.93887	3.9347	3.93187	3.9313	3.9235	3.91538	3.87737	3.85376	3.77444	3.73421	3.78871	3.76873	3.75899	3.72425	3.6907	3.65618	3.61896	3.58241	3.52404	3.50544	3.47919	3.46808	3.45691	3.45945	3.48096	3.52687	3.55656	3.58625	3.59906	3.61096	3.61407	3.62872	3.6342	3.64899	3.65801	3.69517	3.72934	3.77321	3.79211	3.80667	3.80048	3.77486	3.74643	3.71374	3.68471	3.63741	3.5899	3.54397	3.5315	3.68386	3.79735	3.79436	3.78406	3.7346	3.67617	3.63527	3.53851	3.46416	3.5124	3.5771	3.65239	3.72027	3.80344	3.8708	3.98317	4.0263	4.07006	4.1002	4.13233	4.13085	4.12715	4.12301	4.11229	4.10397	4.08958	4.0782	4.06049	4.04718	4.02905	4.01483	3.99995	3.98399	3.97388	3.95986	3.94179	3.92094	3.89945	3.87995	3.85908	3.84101	3.82128	3.80485	3.78545	3.7693	3.75106	3.73102	3.7266	3.72613	3.72385	3.72157	3.73635	3.75132	3.77222	3.79309	3.81907	3.84547	3.8756	3.9099	3.95292	3.95772	3.91427	3.92707	3.94482	3.97014	4.00659	4.04698	4.09656	4.14992	4.18838	4.19352	4.19701	4.17641	4.17205	4.1657	4.15691	4.15276	4.15297	4.21532	4.2259	4.21447	4.19889	4.1937	4.1864	4.18295	4.18293	4.18301	4.21184	4.2254	4.24557	4.26812	4.28786	4.31852	4.3154	4.28772	4.25294	4.23409	4.25486	4.29468	4.34454	4.40064	4.44731	4.50112	4.54071	4.35125	4.33341	4.32815	4.38724	4.44882	4.52311	4.59859	4.67408	4.75778	4.85378	4.94864	5.02907	5.12752	5.1942	5.25286	5.30754	5.36111	5.41245	5.48289	5.55597	5.64237	5.73675	5.84047	5.98301	6.12097	6.28402	6.4574	6.64232	6.83403	6.98914	7.1905	7.41039	7.63242	7.87732	8.19689	8.67803	9.01193	9.42385	10.1064	10.7433	11.6105	12.5113	13.7107	15.1695	16.9862	19.1542	21.7469	24.8724	28.7441	34.1378	38.8183	45.7867	59.1329	73.3485	89.2665	116.79	130.765	145.307	141.331	128.032	106.175	88.5013	69.5752	54.8247	44.7629	37.2042	32.9533	29.4534	21.2236	18.9968	18.1422	16.6553	15.1626	13.993	13.1149	12.0159	11.2608	10.3855	9.7627	9.29392	8.72561	8.20158	7.86248	7.56778	7.34575	7.15045	6.96261	6.79095	6.62152	6.44383	6.22591	6.05207	5.89177	5.74628	5.62571	5.50923	5.39809	5.29332	5.19187	5.09465	5.00502	4.91379	4.83567	4.72629	4.6705	4.61979	4.57497	4.54192	4.50936	4.49145	4.47062	4.45874	4.43841	4.43404	4.4124	4.39637	4.37452	4.35488	4.33296	4.3089	4.24403	4.21159	4.15843	4.12581	4.10281	4.08154	4.06363	4.05816	4.0597	4.08836	4.09477	4.11896	4.13124	4.1708	4.22468	4.23555	4.19266	4.11625	4.03463	3.98488	4.0283	4.07396	4.12961	4.10354	4.07335	4.07347	4.07153	4.07645	4.09761	4.10933	4.12748	4.12105	4.14877	4.1558	4.13707	4.10933	4.07357	4.04022	4.015	3.99299	3.9517	3.89062	3.80236	3.70184	3.62908	3.59896	3.58626	3.59773	3.59132	3.58434	3.59355	3.59912	3.56867	3.57779	3.56841	3.59827	3.6056	3.63562	3.66431	3.70144	3.74091	3.76851	3.78263	3.8025	3.81581	3.84207	3.85401	3.86654	3.86152	3.85501	3.84916	3.8387	3.83159	3.82258	3.80028	3.77634	3.75341	3.72956	3.70421	3.68157	3.65878	3.64372	3.61944	3.59606	3.56067	3.55943	3.55753	3.56167	3.57696	3.59774	3.60481	3.61289	3.62057	3.63185	3.61722	3.59908	3.58419	3.56063	3.553	3.54036	3.49677	3.5188	3.54529	3.57338	3.61219	3.63983	3.74982	3.79306	3.84944	3.9142	3.94964	3.98745	3.98356	3.9596	3.93617	3.88807	3.84786	3.80851	3.75074	3.70616	3.6712	3.6647	3.65904	3.70897	3.73144	3.75267	3.77938	3.81122	3.8265	3.82419	3.8037	3.78674	3.76894	3.74968	3.72249	3.71308	3.67894	3.64965	3.61314	3.57648	3.53755	3.50212	3.42333	3.31029	3.28776	3.26975	3.25688	3.25307	3.24876	3.3044	3.33284	3.36507	3.39565	3.43315	3.47252	3.50882	3.54641	3.58101	3.61295	3.64579	3.67676	3.71004	3.74004	3.75669	3.75073	3.73511	3.74994	3.76568	3.80504	3.84727	3.88953	3.92074	3.9441	3.96075	3.97613	3.98966	4.00332	4.01366	4.00994	4.00307	3.99921	3.97362	3.94537	3.91345	3.87789	3.83898	3.79475	3.70683	3.66371	3.59736	3.57529	3.5615	3.60106	3.65663	3.70503	3.74244	3.77334	3.79487	3.80732	3.82457	3.8421	3.86271	3.88188	3.87612	3.84971	3.82737	3.80202	3.77763	3.75414	3.72907	3.71734	3.70012	3.69121	3.62484	3.60454	3.58039	3.6047	3.61428	3.62984	3.64238	3.65688	3.67181	3.69448	3.70488	3.70427	3.65333	3.60258	3.54632	3.49922	3.45162	3.41148	3.37277	3.35631	3.39251	3.44202	3.48776	3.49838	3.45922	3.48635	3.48799	3.48734	3.50647	3.51923	3.53636	3.5349	3.57071	3.60427	3.6432	3.68024	3.69036	3.66627	3.65541	3.71876	3.86747	3.90366	3.93302	3.88019	3.89785	3.83697	3.7995	3.80378	3.8045	3.7563	3.70447	3.657	3.5874	3.49982	3.48461	3.46817	3.46416	3.45826	3.53923	3.57292	3.60273	3.57413	3.50851	3.44306	3.38402	3.33471	3.37356	3.46396	3.57664	3.62499	3.66527	3.74693	3.83872	3.87397	3.87465	3.84125	3.82107	3.79415	3.73083	3.72636	3.72274	3.72203	3.63002	3.51248	3.4269	3.34466	3.35469	3.56846	3.79368	3.62619	3.73002	3.79391	3.82596	3.88864	3.9376	3.94213	3.8097	3.7127	3.73717	3.73168	3.85326	3.87004	3.8644	3.85367	3.83923	3.82697	3.81582	3.80366	3.7898	3.84152	3.97374	4.00628	3.99683	3.97885	3.97419	3.96134	3.93193	3.89261	3.85699	3.81577	3.77309	3.72851	3.69161	3.65199	3.60958	3.587	3.56703	3.58021	3.59835	3.69912	3.69731	3.66747	3.6421	3.5922	3.57785	3.56667	3.55809	3.55164	3.55082	3.54966	3.55415	3.56674	3.57981	3.58946	3.59555	3.56757	3.52996	3.529	3.53235	3.5346	3.55882	3.57889	3.62496	3.64172	3.65383	3.65882	3.66758	3.67368	3.67789	3.67723	3.67969	3.69111	3.71306	3.73363	3.75885	3.78253	3.80988	3.83635	3.86448	3.89783	3.92428	3.93118	3.9384	3.93545	3.93402	3.90907	3.87969	3.84805	3.7987	3.77643	3.7602	3.90272	3.88921	3.86893	3.83343	3.7341	3.6875	3.64407	3.61239	3.57772	3.53854	3.5023	3.4692	3.45804	3.45	3.45686	3.55943	3.59652	3.65113	3.7142	3.77601	3.83885	3.89673	3.93777	3.93966	3.93216	3.91301	3.87567	3.83142	3.77746	3.71052	3.64416	3.58238	3.5369	3.5492	3.63042	3.65088	3.66385	3.68553	3.7117	3.74773	3.80858	3.86268	3.90162	3.94401	3.97962	4.01106	3.96363	3.92662	3.8673	3.5932	3.62334	3.66058	3.69004	3.72211	3.74156	3.7441	3.66204	3.57513	3.49342	3.41416	3.34578	3.27743	3.27941	3.20783	3.23512	3.23517	3.23763	3.31618	3.4014	3.61271
0	20	3.38769	3.88624	4.42482	4.53424	4.42742	4.16735	4.01325	3.92245	3.86614	3.84128	3.83484	3.8458	3.92075	3.95072	3.97388	4.01493	4.05276	4.03609	3.98705	3.96877	3.92739	3.88003	3.87412	3.81745	3.88043	3.90906	3.96738	4.01337	4.05067	4.05717	4.07519	4.07773	4.00531	3.93219	3.8625	3.85294	3.85888	3.85797	3.86612	3.89925	3.91947	3.96015	3.98593	3.9783	3.99215	3.94824	3.9248	3.91348	3.87523	3.82612	3.78231	3.70947	3.54764	3.42615	3.40504	3.38953	3.40519	3.48421	3.5005	3.50987	3.55352	3.61779	3.65062	3.69202	3.68335	3.69143	3.72012	3.80247	3.81956	3.82509	3.83014	3.82313	3.80485	3.80706	3.79511	3.81491	3.80347	3.81422	3.80785	3.74376	3.71739	3.66219	3.65442	3.66911	3.68387	3.70672	3.71599	3.76238	3.76297	3.77037	3.81003	3.78805	3.79712	3.77836	3.74822	3.72018	3.69143	3.62902	3.54419	3.45215	3.75373	3.68814	3.60899	3.53282	3.48798	3.45594	3.45674	3.55027	3.56546	3.60419	3.66702	3.73329	3.78198	3.85644	3.92831	3.95315	3.9841	3.98466	3.9488	3.87886	3.82443	3.72063	3.64071	3.61961	3.58751	3.52821	3.54527	3.55003	3.52062	3.52705	3.57422	3.63809	3.71251	3.82167	3.86263	3.86738	3.88658	3.87673	3.81556	3.78683	3.74924	3.71323	3.72151	3.72284	3.7169	3.73451	3.78216	3.81643	3.84763	3.84968	3.85524	3.85978	3.86582	3.86951	3.88904	3.91889	3.96392	4.00991	4.05195	4.09223	4.12934	4.14316	4.16283	4.15633	4.1529	4.16593	4.19661	4.18833	4.14415	4.10532	4.07909	4.06401	4.05934	4.05822	4.04611	4.05956	4.08354	4.09661	4.12404	4.13358	4.15905	4.13798	4.07404	4.03324	3.98681	3.93914	3.89579	3.8585	3.81784	3.82131	3.85928	3.90782	3.91507	3.90105	3.86614	3.84925	3.83804	3.83125	3.85269	3.85686	3.84592	3.82185	3.78132	3.75737	3.71048	3.67972	3.63996	3.63717	3.58543	3.56843	3.61823	3.63659	3.69163	3.74016	3.77557	3.89329	3.96295	4.04175	4.09348	4.13197	4.17214	4.2075	4.24223	4.28757	4.29946	4.32577	4.31895	4.30852	4.29375	4.20952	4.2108	4.17668	4.16547	4.1369	4.13331	4.1526	4.09055	4.03331	3.95213	3.91016	3.88761	3.8629	3.87084	3.93923	3.95167	3.95625	3.93672	3.89372	3.89196	3.9239	3.91188	3.90422	3.8887	3.80738	3.72051	3.68877	3.653	3.6471	3.74581	3.79428	3.82224	3.84517	3.84705	3.8542	3.75556	3.64928	3.64926	3.68256	3.55551	3.60147	3.61988	3.74209	3.96046	3.98601	4.04364	4.06714	4.08345	4.10004	4.10992	4.11138	4.11809	4.1162	4.04232	3.98374	3.91904	3.90098	3.86334	3.81374	3.7427	3.68968	3.64424	3.57583	3.51354	3.47208	3.42009	3.40637	3.38267	3.37082	3.38085	3.36016	3.36873	3.40844	3.45565	3.46673	3.44799	3.40687	3.34692	3.32763	3.30762	3.33919	3.31352	3.28976	3.33207	3.41905	3.47041	3.46844	3.46878	3.47007	3.45142	3.41998	3.42216	3.42084	3.4023	3.38092	3.36065	3.33865	3.28169	3.2198	3.48692	3.93652	3.97572	4.03887	4.10338	3.97329	3.69793	3.67681	3.80699	3.79869	3.76158	3.53318	3.74326	3.78951	3.84293	3.87656	3.89743	3.91909	3.90353	3.88369	3.83689	3.7804	3.746	3.65364	3.57529	3.51404	3.46486	3.45244	3.41942	3.37301	3.36262	3.4123	3.50731	3.63747	3.71437	3.76466	3.80567	3.84397	3.9086	3.97402	4.03785	4.079	4.12301	4.08766	4.04286	4.10524	4.07653	4.05074	3.98389	3.89055	3.79904	3.7692	3.76734	3.7528	3.69834	3.62514	3.59857	3.64777	3.68702	3.72289	3.72133	3.76872	3.86057	3.89981	3.95356	3.98756	3.99121	4.0158	4.04268	4.05365	4.06761	4.0768	4.06042	4.08381	4.08503	4.09986	4.11698	4.10996	4.1029	4.10755	4.10058	4.10866	4.10929	4.11336	4.12336	4.11495	4.11629	4.14327	4.14941	4.15478	4.18765	4.23779	4.27763	4.30718	4.29232	4.24378	4.24534	4.24972	4.26595	4.33854	4.31521	4.31408	4.32978	4.357	4.38522	4.42408	4.47049	4.43117	4.39936	4.36322	4.3524	4.37004	4.54439	4.53548	4.50482	4.50762	4.53837	4.54879	4.5302	4.52647	4.55867	4.61923	4.70256	4.87756	4.99314	5.13504	5.21745	5.23828	5.27437	5.26425	5.31559	5.3895	5.58286	5.80093	5.96464	6.18634	6.35987	6.5877	6.75075	6.913	7.14373	7.39932	7.64319	7.82436	8.06665	8.29672	8.61736	9.04155	9.54558	10.2861	11.0072	11.871	12.7307	13.9247	15.239	16.6836	18.438	20.5272	23.0233	25.9832	29.3783	33.2447	38.001	49.8142	55.2233	71.8285	90.5224	113.127	137.56	154.751	164.169	161.976	151.262	123.841	103.59	83.4693	68.0054	50.1997	43.2177	37.3918	30.9073	26.616	23.1512	20.6233	18.5746	17.0572	15.6726	14.3166	12.922	11.375	10.2767	9.87931	9.26571	8.75563	8.30869	7.937	7.67511	7.45255	7.24954	7.07693	6.84062	6.63537	6.45094	6.21247	6.06416	5.93131	5.84618	5.77516	5.70531	5.63784	5.58462	5.52239	5.42354	5.33844	5.25425	5.17712	5.10787	5.0427	4.98545	4.92965	4.81969	4.70122	4.57384	4.48274	4.41531	4.3848	4.39325	4.40916	4.40869	4.40011	4.39781	4.38017	4.37545	4.39193	4.38008	4.41094	4.38579	4.38113	4.37096	4.29127	4.18612	4.11193	4.01292	3.97284	3.95638	3.95291	3.94579	3.93959	3.91046	3.86676	3.79679	3.79128	3.79733	3.83168	3.86121	3.93558	3.9428	3.96194	3.96447	3.93843	3.93656	3.90864	3.88492	3.86526	3.86346	3.84158	3.83666	3.80345	3.78685	3.76444	3.74678	3.7374	3.72675	3.70449	3.67179	3.65083	3.6397	3.6428	3.67138	3.70471	3.74892	3.80481	3.83103	3.86402	3.87826	3.86566	3.78944	3.71261	3.62568	3.56081	3.52631	3.47583	3.4308	3.4028	3.36811	3.36524	3.36293	3.38812	3.43446	3.45218	3.4669	3.48971	3.5038	3.50729	3.53291	3.55977	3.61183	3.64921	3.68279	3.71443	3.73034	3.67067	3.57176	3.39858	3.28599	3.19406	3.12187	3.06612	3.40385	3.44403	3.48665	3.47012	3.50892	3.5375	3.60626	3.64527	3.67709	3.68376	3.67605	3.66992	3.66304	3.65126	3.58151	3.55836	3.48592	3.44797	3.37444	3.24712	3.23008	3.19993	3.22567	3.22161	3.2244	3.22634	3.26399	3.26941	3.28534	3.28047	3.30327	3.33927	3.39091	3.42429	3.44796	3.47066	3.47813	3.54644	3.57754	3.6002	3.64938	3.67256	3.70004	3.68261	3.69109	3.68796	3.69397	3.70265	3.7184	3.6828	3.61976	3.55001	3.47759	3.42432	3.39003	3.31847	3.27652	3.3408	3.36456	3.38918	3.41383	3.41762	3.41902	3.41279	3.41898	3.42786	3.43929	3.43568	3.362	3.26425	3.1959	3.19007	3.16601	3.24966	3.27583	3.33851	3.28509	3.24749	3.25807	3.34869	3.1858	3.20231	3.26593	3.32671	3.39591	3.47376	3.50212	3.51083	3.55628	3.59234	3.59369	3.57307	3.55196	3.5037	3.28065	3.20605	3.18504	3.19406	3.36284	3.47384	3.53979	3.52452	3.4831	3.48154	3.47767	3.50958	3.51861	3.53291	3.57106	3.5838	3.59411	3.59817	3.59786	3.59245	3.58542	3.54079	3.50188	3.43921	3.41698	3.5532	3.67102	3.80519	3.90449	3.83898	3.74483	3.61671	3.47891	3.34096	3.2282	3.13046	3.10355	3.09798	3.17787	3.26795	3.45948	3.54821	3.63466	3.65321	3.65228	3.65935	3.66327	3.67161	3.67809	3.67086	3.6485	3.61066	3.58259	3.55674	3.56264	3.55716	3.56418	3.56719	3.60219	3.62102	3.65259	3.6686	3.66796	3.64515	3.59479	3.58001	3.56398	3.55111	3.54236	3.53609	3.52884	3.53641	3.55239	3.56256	3.54087	3.47731	3.44558	3.46793	3.51458	3.55132	3.63754	3.63532	3.66023	3.69112	3.70062	3.71727	3.7544	3.75916	3.77715	3.75882	3.73687	3.71376	3.67723	3.66904	3.68454	3.6876	3.69449	3.70063	3.71674	3.71522	3.73171	3.72288	3.69931	3.66392	3.62375	3.58032	3.57352	3.56574	3.60962	3.58083	3.54241	3.45727	3.40128	3.38885	3.42965	3.5332	3.59525	3.62025	3.56652	3.52068	3.4905	3.45277	3.41776	3.38291	3.34376	3.33399	3.34171	3.34761	3.36139	3.3782	3.39624	3.42274	3.45129	3.48489	3.53627	3.55674	3.58172	3.60299	3.62377	3.64529	3.63597	3.62966	3.62674	3.62087	3.63033	3.64591	3.65978	3.67721	3.69334	3.71253	3.71879	3.74449	3.78686	3.81771	3.84876	3.88396	3.93481	3.87542	3.76133	3.63923	3.56115	3.50734	3.45511	3.41464	3.43123	3.50496	3.62434	3.68142	3.70352	3.72478	3.71822	3.71593	3.7169	3.68294	3.65118	3.62485	3.58309	3.54966	3.54952	3.54343	3.53206	3.50131	3.45872	3.44889	3.43991	3.47794	3.50092	3.52679	3.55821	3.58912	3.63356	3.67485	3.73781	3.78254	3.82545	3.85683	3.85176	3.85767	3.82123	3.7817	3.78026	3.76794	3.75999	3.74941	3.75956	3.76047	3.74321	3.73738	3.72258	3.69479	3.67353	3.58686	3.51821	3.47016	3.47835	3.51617	3.55336	3.5821	3.61931	3.64322	3.67055	3.68676	3.69983	3.70807	3.7161	3.70223	3.67243	3.66576	3.66119	3.66881	3.67781	3.68758	3.65327	3.65256	3.65663	3.67449	3.71715	3.72693	3.75551	3.75333	3.75473	3.76073	3.75879	3.71364	3.6931	3.68846	3.66812	3.64352	3.61761	3.60636	3.60246	3.6481	3.65414	3.648	3.49186	3.55516	3.66742	3.66796	3.67398	3.67336	3.29001	3.13069	3.19947	3.16361	3.18459	3.22601	3.28633	3.38945	3.46458	3.55557	3.61071	3.62364	3.63309	3.55165	3.55134	3.55965	3.52207	3.47757	3.49863	3.47554	3.47953	3.43086	3.29468	2.94504
20	-20	3.53602	3.87173	4.15812	4.34683	4.41761	4.4363	4.43625	4.42793	4.39914	4.39552	4.38005	4.38198	4.38637	4.38209	4.37901	4.35817	4.32509	4.29557	4.23433	4.16132	4.09421	4.00337	4.01508	4.08363	4.17562	4.26702	4.3556	4.45923	4.53949	4.61818	4.61841	4.59943	4.39798	4.27978	4.16193	4.15755	4.20353	4.2034	4.20789	4.21381	4.22357	4.22331	4.23361	4.22995	4.25158	4.32108	4.39019	4.44607	4.50416	4.53712	4.58616	4.60939	4.61915	4.61993	4.62677	4.56438	4.50078	4.43485	4.37664	4.31845	4.24658	4.18791	4.22715	4.24475	4.25719	4.26771	4.30481	4.34256	4.40253	4.40447	4.40588	4.41095	4.41792	4.41262	4.4248	4.37545	4.35468	4.38434	4.42632	4.44154	4.40284	4.34959	4.28638	4.20863	4.1343	4.07323	4.02292	3.9979	3.97525	3.98206	4.01622	4.0198	4.097	4.17835	4.30051	4.39403	4.46573	4.51725	4.55182	4.54507	4.55269	4.55172	4.52592	4.4699	4.40282	4.33155	4.27646	4.21791	4.19991	4.19244	4.1682	4.15547	4.14386	4.10906	4.06769	4.02856	4.01912	4.00335	3.979	3.93828	3.90792	3.88538	3.87181	3.88154	3.89152	3.89703	3.91388	3.95828	4.00038	4.08672	4.14783	4.20624	4.25885	4.29249	4.31998	4.35113	4.3913	4.33556	4.31157	4.28976	4.26975	4.25202	4.2368	4.22198	4.2361	4.22297	4.19723	4.17758	4.1465	4.09822	4.04796	4.00254	3.97712	3.96023	3.97796	4.00585	4.0635	4.12483	4.18778	4.25135	4.28152	4.3018	4.32508	4.34374	4.36416	4.3709	4.33687	4.29792	4.23434	4.1845	4.15368	4.16187	4.20216	4.25052	4.30051	4.36597	4.42894	4.48647	4.53216	4.5585	4.58109	4.56881	4.55438	4.54106	4.56036	4.55885	4.56465	4.56653	4.60273	4.60262	4.6263	4.62509	4.60633	4.58256	4.52414	4.44947	4.36355	4.296	4.20785	4.19039	4.17787	4.18857	4.21447	4.19941	4.20363	4.21225	4.21308	4.23781	4.27302	4.30072	4.36866	4.40933	4.43221	4.41305	4.37067	4.33143	4.30973	4.27994	4.21755	4.22727	4.24243	4.30112	4.33663	4.35885	4.33035	4.32046	4.32604	4.37471	4.39417	4.39058	4.48952	4.60693	4.73968	4.81855	4.83247	4.80359	4.66855	4.49985	4.29041	4.16244	4.09434	4.05312	4.13796	4.15573	4.15971	4.21372	4.27295	4.29365	4.30259	4.2568	4.2457	4.24772	4.27764	4.30409	4.33488	4.31191	4.26131	4.21776	4.14052	4.09425	4.03591	4.01679	4.00899	4.03063	4.10643	4.2171	4.30091	4.40523	4.49892	4.53442	4.47754	4.41961	4.35998	4.30013	4.24296	4.18736	4.13587	4.09003	4.03446	3.99485	3.92605	3.88008	3.88948	3.9115	3.96581	3.91276	3.82778	3.77567	4.0052	4.02265	4.03946	4.053	4.0435	3.94751	3.89778	3.8921	3.94416	3.99867	4.03847	3.97783	3.60855	3.5184	3.5733	3.66321	3.7654	3.83121	3.88625	3.93584	3.98158	4.0196	4.05508	4.07739	4.0218	3.96279	3.93139	3.90961	3.86339	3.82851	3.7983	3.77405	3.77499	3.8119	3.82854	3.85265	3.89903	3.96558	4.0017	4.02701	4.05136	4.09631	4.11739	4.13399	4.15232	4.16895	4.15751	4.14432	4.13002	4.11534	4.09937	4.08049	4.06416	4.01358	3.94313	3.90674	3.89553	3.90426	3.91897	3.92881	3.93091	3.95783	3.95582	3.97505	4.01731	4.04967	4.07761	4.1225	4.16514	4.18199	4.20164	4.21326	4.19115	4.18285	4.17835	4.07762	4.04108	3.9932	3.96199	3.94302	3.93169	3.96134	3.99121	4.04838	4.05113	4.08061	4.12624	4.17819	4.20279	4.19769	4.20313	4.19633	4.20954	4.19469	4.18309	4.17313	4.16875	4.18213	4.19363	4.20427	4.20524	4.19805	4.22954	4.22052	4.16395	4.11761	4.17967	4.26436	4.34538	4.37572	4.50281	4.53082	4.49882	4.47659	4.47439	4.464	4.45564	4.42183	4.40095	4.3691	4.34128	4.29781	4.29593	4.32044	4.3177	4.32344	4.33204	4.34818	4.35579	4.28829	4.20515	4.13301	4.07497	4.04943	4.02978	4.05538	4.08245	4.11213	4.17449	4.21527	4.26867	4.37223	4.48481	4.59673	4.70545	4.82266	4.87581	4.90615	4.93559	4.9696	4.95374	4.94581	4.94822	5.01923	5.09254	5.15018	5.19614	5.25152	5.32955	5.45384	5.5239	5.61871	5.73718	5.85068	5.93902	6.05529	6.18952	6.29958	6.40127	6.50431	6.61091	6.70112	6.8286	6.95998	7.065	7.25334	7.38444	7.61712	7.89525	8.20231	8.53761	8.89605	9.2212	9.62456	9.94597	10.3937	10.8518	11.4321	12.2163	13.0189	13.9582	15.1277	16.4601	17.9855	19.7264	21.8329	23.8903	27.3131	29.6242	34.5015	39.717	51.0916	54.983	70.3254	85.4946	109.531	127.14	163.966	195.694	228.919	228.65	219.456	188.884	154.194	129.666	105.883	80.1566	65.116	52.488	44.7321	39.7292	35.7563	30.8028	26.8075	23.4755	20.9553	19.465	17.7701	16.0012	14.4968	13.5297	12.638	11.7749	11.079	10.4971	9.96994	9.5174	9.23233	8.97904	8.68907	8.44026	8.15827	7.88049	7.61883	7.39082	7.18298	7.00613	6.85532	6.7325	6.64049	6.54272	6.43377	6.35216	6.18315	6.01178	5.87589	5.77678	5.67769	5.61951	5.57456	5.55777	5.55141	5.52176	5.46	5.38025	5.13346	4.86169	4.6815	4.40269	4.39013	4.36008	4.47301	4.44757	4.34298	4.26327	4.24522	4.24551	4.31009	4.44059	4.48825	4.5513	4.60829	4.62767	4.58653	4.43257	4.26898	4.16321	4.09441	4.01738	4.02129	4.04196	4.08841	4.14877	4.22088	4.29882	4.36194	4.4194	4.47258	4.45239	4.42946	4.40888	4.34554	4.29695	4.26627	4.25488	4.24423	4.22463	4.21777	4.20252	4.19922	4.19043	4.05872	4.01621	3.98166	3.97458	4.00573	4.0685	4.20303	4.17244	4.13634	4.07474	4.03326	4.023	4.01122	3.98584	3.98395	3.99293	3.98125	3.97924	3.99082	3.99284	3.99037	3.99184	3.99617	4.00392	3.99346	3.97276	3.9458	3.92722	3.90735	3.86715	3.87434	3.88885	3.91444	3.94308	3.96444	3.95719	3.94855	3.99317	4.03144	4.04542	4.04269	3.98901	3.96567	3.93603	3.92898	3.92542	3.93086	3.92483	3.92426	3.91534	3.93008	3.92511	3.91832	3.91826	3.92292	3.93055	3.93007	3.93969	3.93115	3.92592	3.91957	3.90477	3.8985	3.90274	3.89448	3.89828	3.91417	3.93382	3.93092	3.93628	3.92981	3.92823	3.92255	3.91925	3.91442	3.90933	3.90559	3.89938	3.89712	3.89127	3.88763	3.88215	3.87351	3.85909	3.81287	3.74803	3.61226	3.52015	3.47199	3.40613	3.3765	3.34267	3.35344	3.40287	3.46621	3.65491	3.77245	3.90209	3.99885	4.0536	4.09125	4.02903	3.81431	3.84085	3.83148	3.81373	3.77982	3.74669	3.75756	3.74759	3.70188	3.63331	3.56318	3.57966	3.58336	3.65823	3.70013	3.74968	3.80288	3.83826	3.86967	3.90311	3.93764	3.97003	3.99885	4.02307	4.02749	4.02894	3.99835	3.98083	3.97377	3.94827	3.93317	3.92159	3.93712	3.94288	3.93678	3.93608	3.93025	3.91237	3.89526	3.86513	3.88136	3.89413	3.89283	3.9018	3.89482	3.89604	3.89297	3.88722	3.87534	3.85362	3.79812	3.73479	3.67754	3.61862	3.56319	3.51327	3.46458	3.42844	3.39384	3.37509	3.35913	3.47849	3.5201	3.58316	3.62452	3.72709	3.8334	3.92124	3.94673	3.97412	4.02935	4.01694	3.94263	3.80219	3.53318	3.32707	3.35298	3.51782	3.60527	3.58121	3.76558	3.87298	3.80712	3.81539	3.83692	3.88541	3.88708	3.78903	3.72926	3.68255	3.62781	3.64248	3.7203	3.81069	3.91106	4.04728	4.15413	4.24986	4.28193	4.27656	4.23546	4.14867	4.05562	3.83121	3.83748	3.87477	3.9966	4.21623	4.21866	3.99816	3.94617	3.90864	3.90001	3.92353	3.95201	3.99308	4.03358	4.01646	3.99659	3.98379	3.94889	3.89473	3.85325	3.82318	3.82005	3.84304	3.86492	3.86675	3.88749	3.9149	3.92179	3.87296	3.89104	3.90162	3.91552	3.89634	3.83029	3.60008	3.70696	3.90332	4.0487	4.14917	3.9362	4.05426	4.10468	4.10426	4.07565	4.04891	4.03043	4.0136	3.99029	3.97642	3.97167	3.95738	3.95197	3.97118	3.97264	4.00329	4.01436	3.99716	3.98671	3.96397	3.97428	3.99821	4.02294	4.04227	4.06387	4.10189	4.09566	4.08667	4.11222	4.13938	4.10914	4.06412	4.00068	3.94382	3.88979	3.83985	3.79505	3.75596	3.7248	3.75709	3.80792	3.84418	3.88022	3.8886	3.87368	3.8725	3.87127	3.88613	3.88835	3.90696	3.92919	3.97481	3.94212	3.91934	3.9112	3.82094	3.79875	3.795	3.78231	3.78479	3.77887	3.77589	3.7865	3.74881	3.70939	3.68153	3.59672	3.17245	3.80428	3.85534	3.84899	3.84841	3.8447	3.86048	3.82035	3.78351	3.72914	3.69279	3.65471	3.65599	3.64553	3.62841	3.63655	3.65662	3.6989	3.73423	3.76828	3.7619	3.75365	3.7461	3.7472	3.74856	3.73901	3.75127	3.77097	3.77289	3.82145	3.86899	3.92097	3.96018	3.99654	4.02338	4.01076	4.00274	3.99029	3.97572	3.97067	3.95976	3.96994	3.96601	3.9812	3.99312	4.02018	4.03935	4.03954	4.03475	4.04994	4.05968	4.07577	4.08929	4.09637	4.14651	4.17131	4.17713	4.1769	4.132	4.10515	4.07711	4.053	4.02748	4.01902	4.02296	4.03526	4.04337	4.03964	4.03195	4.02738	4.00687	3.98977	3.96404	3.93128	3.92323	3.89692	3.89406	3.90416	3.91299	3.91804	3.91637	3.89805	3.89571	3.90086	3.90646	3.90833	3.88708	3.87709	3.84678	3.83388	3.81759	3.81582	3.81093	3.84439	3.87135	3.96837	3.98386	4.0015	4.00558	4.0159	4.01783	4.01496	4.01603	3.98334	3.9062	3.79709	3.69684	3.59342	3.51979	3.46492	3.45686	3.49444	3.86592	4.33361
20	0	4.42206	4.59699	4.69739	4.69576	4.69072	4.68235	4.67083	4.65675	4.64084	4.62864	4.61756	4.60722	4.59739	4.58793	4.57855	4.56907	4.55937	4.55137	4.53638	4.48023	4.48296	4.48684	4.45685	4.4438	4.44385	4.50338	4.51688	4.53024	4.52267	4.53899	4.54762	4.55418	4.52959	4.50439	4.468	4.44749	4.41531	4.38513	4.34448	4.29981	4.26906	4.26207	4.25151	4.26282	4.26001	4.29199	4.28403	4.30761	4.32823	4.39276	4.42106	4.44609	4.41617	4.36908	4.33116	4.28309	4.24444	4.22816	4.23328	4.2623	4.31519	4.36356	4.42489	4.49183	4.52861	4.52435	4.51657	4.50986	4.50316	4.49734	4.49327	4.46759	4.40807	4.36274	4.33573	4.31195	4.3184	4.32602	4.34865	4.37059	4.40091	4.43153	4.47348	4.46691	4.46175	4.44964	4.43815	4.42049	4.41642	4.40687	4.39213	4.38483	4.38498	4.37933	4.38208	4.37971	4.38417	4.38541	4.39105	4.38983	4.39462	4.39269	4.36781	4.34288	4.30201	4.27274	4.22133	4.13214	4.08878	4.04292	3.98784	3.92037	3.87073	3.82184	3.90006	4.03107	4.15143	4.22875	4.32013	4.39786	4.49462	4.56641	4.58691	4.57782	4.56735	4.51655	4.46767	4.37348	4.28114	4.20536	4.0581	4.04766	4.06591	4.11428	4.12743	4.14581	4.16406	4.12338	4.1487	4.16886	4.18595	4.20255	4.21356	4.2476	4.27865	4.28315	4.30347	4.31294	4.28631	4.20493	4.12611	4.05617	4.00764	3.96444	3.9262	3.93389	3.97552	3.98798	3.96077	3.94817	3.92962	3.95043	3.96137	3.99201	4.03144	4.06253	4.09281	4.12572	4.16068	4.19502	4.23273	4.26864	4.30802	4.3307	4.37325	4.41564	4.47018	4.51008	4.52253	4.50282	4.5012	4.50188	4.4631	4.42941	4.42338	4.45331	4.47137	4.55193	4.60619	4.60859	4.5111	4.40581	4.29855	4.1922	4.06838	3.99612	4.0242	4.07974	4.11503	4.20468	4.29954	4.40371	4.50581	4.61	4.71521	4.7785	4.81046	4.83442	4.83539	4.85166	4.85456	4.84646	4.82315	4.76833	4.73049	4.71371	4.67804	4.63893	4.5943	4.46383	4.43765	4.41111	4.38751	4.40036	4.42271	4.45088	4.49289	4.53676	4.56122	4.56452	4.56462	4.5796	4.58343	4.60288	4.64493	4.67247	4.7294	4.72773	4.72589	4.72334	4.72453	4.72266	4.72742	4.72573	4.70918	4.69563	4.68008	4.66023	4.61672	4.56515	4.56403	4.52236	4.48256	4.44195	4.37934	4.30858	4.32842	4.36398	4.44654	4.49096	4.54647	4.5002	4.36351	4.30812	4.30779	4.31942	4.3489	4.35966	4.39659	4.38333	4.35336	4.27353	4.25215	4.24041	4.23723	4.21457	4.20081	4.20947	4.2106	4.22967	4.2437	4.27411	4.28872	4.31416	4.32576	4.34309	4.35661	4.37713	4.36108	4.2955	4.25382	4.19305	4.12779	4.06839	4.01849	3.96694	3.91666	3.87073	3.87394	3.87182	3.88881	3.94754	4.02792	4.09002	4.13421	4.1363	4.16222	4.14343	4.13029	4.1472	4.08652	3.99702	3.92555	3.81947	3.78195	3.74231	3.72157	3.69728	3.72859	3.75653	3.81366	3.85335	3.92306	3.96025	3.98425	4.00851	4.03104	4.00476	3.98327	3.97854	3.94481	3.94124	3.94449	3.9462	3.9492	3.93023	3.92898	3.93722	4.00972	4.0681	4.11051	4.06985	4.03074	3.97022	3.92501	3.93487	3.95289	3.97221	3.99568	4.02128	4.01844	4.00291	3.98693	3.97709	3.99284	4.00006	4.00221	4.00217	4.01029	3.96628	3.99417	4.01746	4.04877	4.08068	4.11507	4.15526	4.19193	4.23624	4.27402	4.32773	4.37375	4.38734	4.34718	4.36762	4.35052	4.34094	4.35743	4.40469	4.50718	4.52296	4.50285	4.49305	4.47951	4.47267	4.46089	4.45417	4.44505	4.4392	4.43395	4.42957	4.40745	4.41577	4.42466	4.42421	4.45799	4.46769	4.47989	4.49531	4.509	4.52474	4.54244	4.56023	4.5835	4.60735	4.65641	4.67153	4.66219	4.66564	4.66681	4.6615	4.64738	4.6503	4.67359	4.71283	4.74373	4.78349	4.7661	4.7998	4.81494	4.83911	4.87076	4.90775	4.95278	5.03743	5.10435	5.16971	5.24049	5.34057	5.37777	5.40768	5.43981	5.47384	5.47924	5.4729	5.45708	5.48383	5.52228	5.57021	5.59809	5.62982	5.65198	5.65914	5.65981	5.66513	5.67074	5.66357	5.65414	5.65085	5.65094	5.71888	5.81476	5.91681	6.02021	6.13945	6.25119	6.36825	6.48076	6.59195	6.77611	6.88453	6.98295	7.12148	7.27771	7.47894	7.66021	7.86655	8.11226	8.41731	8.81065	9.26092	9.79575	10.3521	11.1549	11.7694	12.4561	13.2252	14.0587	14.9796	16.1128	17.3045	18.7808	20.2098	22.0526	24.1879	26.7377	29.9579	33.7942	39.6915	47.6895	57.2856	69.6124	79.9749	98.7158	129.01	152.988	202.681	232.177	241.658	253.012	232.781	189.425	151.349	126.45	99.278	80.1804	66.1228	55.4336	45.196	39.3181	35.4378	31.8998	24.0116	24.0006	22.2068	20.5789	18.4505	16.7816	15.3925	14.2425	13.3848	12.6445	11.9363	11.2776	10.6646	10.1527	9.72756	9.38537	8.96877	8.5583	8.26197	7.94267	7.72833	7.57539	7.49207	7.42553	7.38043	7.34243	7.21934	7.15916	7.01875	6.88872	6.76532	6.61694	6.42502	6.28099	6.17878	6.06694	5.97781	5.86228	5.78839	5.61414	5.40355	5.18157	5.13335	5.11891	5.09623	5.10115	5.11712	5.10828	5.12977	5.13308	5.08819	5.05903	5.02681	4.92719	4.61624	4.98185	4.96973	4.95595	4.94899	4.89767	4.84716	4.68663	4.56462	4.43399	4.30597	4.15641	4.14395	4.18537	4.27295	4.36177	4.48183	4.52262	4.54307	4.54847	4.59354	4.66417	4.6953	4.7159	4.67543	4.64643	4.60653	4.57446	4.5367	4.5047	4.47386	4.44411	4.4233	4.41915	4.3131	4.18012	4.09392	4.05543	4.00632	3.98356	4.01444	4.05351	4.08945	4.14547	4.17132	4.2157	4.18768	4.16016	4.13278	4.11579	4.09863	4.08486	4.07623	4.12032	4.12706	4.14746	4.16094	4.12912	4.08994	4.09351	4.12071	4.21618	4.22858	4.23154	4.24275	4.24765	4.24124	4.24481	4.24395	4.29421	4.26893	4.24485	4.21591	4.17585	4.08746	4.06488	4.00773	3.95863	3.91098	3.85662	3.83528	3.82013	3.89913	3.92809	3.96479	3.93606	3.9055	3.90141	3.9428	3.95857	3.96278	3.9651	3.9591	3.96358	3.96412	3.97993	4.00053	3.98831	3.97258	3.95024	3.97093	3.96881	3.967	3.96288	3.95753	3.91798	3.86924	3.85072	3.86014	3.85101	3.84466	3.84948	3.8567	3.83763	3.83188	3.80358	3.80738	3.77022	3.74839	3.8153	3.85466	3.87299	3.89088	3.91834	3.916	3.91887	3.94516	4.00426	3.99873	3.96872	3.93239	3.9202	3.89427	3.85132	3.84345	3.84131	3.85686	3.86039	3.89601	3.94553	3.92256	3.89946	3.85893	3.84461	3.83651	3.83451	3.8833	3.90288	3.92891	3.95262	3.94403	3.92462	3.88476	3.8544	3.84463	3.86025	3.85428	3.88428	3.90672	3.94917	3.97694	3.99592	4.02566	4.06123	4.0255	4.01506	3.95178	3.8999	3.84617	3.79238	3.6443	3.48112	3.4407	3.41515	3.43625	3.56961	3.605	3.56386	3.67845	3.7346	3.77038	3.80014	3.83093	3.86305	3.8968	3.93081	3.96685	4.00224	4.03088	4.06097	4.0849	4.09453	4.06916	4.03955	3.99674	3.96769	3.93644	3.95833	3.98675	3.99141	3.99662	4.01445	4.05774	4.06687	4.08193	4.0758	4.05067	4.04694	4.03783	3.9946	3.91295	3.82353	3.78393	3.74725	3.68019	3.68534	3.69131	3.73345	3.85292	3.95619	3.98314	3.96553	3.96974	3.97212	3.88863	3.83013	3.75713	3.73736	3.75372	3.77741	3.8376	3.86403	3.8801	3.96449	3.97323	4.01843	3.95715	3.83334	3.58203	3.87082	4.1654	4.19233	4.17243	4.12049	4.05454	4.02912	3.96827	3.96705	3.90964	3.929	3.92968	3.99033	4.01855	4.07703	4.11166	4.136	4.14419	4.16273	4.16276	4.16177	4.08778	4.00911	3.92486	3.84973	3.76965	3.70974	3.64266	3.58586	3.54223	3.50047	3.55288	3.57276	3.63523	3.71361	3.7868	3.87424	3.96162	4.0479	4.13435	4.21984	4.29995	4.35362	4.36827	4.37005	4.39836	4.41071	4.42616	4.34768	4.29344	4.23728	4.19188	4.13743	4.05381	3.97812	3.93236	3.9025	3.87139	3.83706	3.83514	3.86851	3.84224	3.82457	3.81209	3.78492	3.7936	3.81034	3.83025	3.85372	3.88501	3.91715	3.94888	3.94508	3.94253	3.93947	3.94617	3.92478	3.93649	3.94533	3.98785	4.00295	4.04052	4.0929	4.14719	4.17891	4.1904	4.20012	4.2248	4.22617	4.20455	4.1749	4.13745	4.11957	4.07093	4.06704	4.06271	4.05882	4.05558	4.0531	4.04995	4.10553	4.14483	4.17153	4.17067	4.16418	4.15466	4.13953	4.12329	4.09868	4.07469	4.04406	4.01768	3.95189	3.91211	3.87334	3.83778	3.8074	3.77453	3.74889	3.71908	3.69632	3.67022	3.64702	3.62287	3.60512	3.58675	3.57607	3.56478	3.552	3.53599	3.55248	3.53366	3.51357	3.49993	3.55653	3.61896	3.67526	3.70109	3.73473	3.79198	3.84511	3.91094	3.94813	3.99942	4.02346	4.04147	4.05353	4.06904	4.04585	3.99423	3.96469	3.88804	3.85054	3.81	3.79139	3.76265	3.75394	3.76632	3.8148	3.85844	3.89842	3.90444	3.8667	3.83181	3.8035	3.77064	3.70195	3.69116	3.68812	3.68214	3.68413	3.72916	3.75123	3.77837	3.80703	3.87891	3.94317	3.97089	4.00091	4.02377	4.04767	4.06724	4.08617	4.10334	4.11775	4.13217	4.13974	4.15122	4.11219	4.10216	4.07824	4.06631	4.05237	4.04209	4.02673	4.01831	4.0026	3.99704	3.98354	3.98134	3.97166	3.9715	3.96546	3.96614	4.00802	4.01517	4.02199	4.02213	4.02588	4.02666	4.02485	4.0201	4.016	4.0033	3.9944	3.98305	3.97506	3.96751	3.96018	4.07737
20	20	3.88842	4.14709	4.40489	4.45423	4.34603	4.28963	4.28887	4.31151	4.36077	4.42657	4.47915	4.50479	4.36442	4.254	4.21166	4.22025	4.23431	4.25192	4.27367	4.2984	4.36008	4.38804	4.37236	4.14565	4.13315	4.19167	4.25673	4.33274	4.40878	4.45085	4.39036	4.24136	4.09358	3.99216	3.93414	3.90434	3.80299	3.72809	3.72908	3.76978	3.90366	4.05773	4.17678	4.26041	4.28275	4.33731	4.37796	4.39629	4.41811	4.41002	4.43961	4.46664	4.47746	4.48314	4.49052	4.41444	4.30978	4.24186	4.20321	4.13329	4.1388	4.15409	4.20275	4.21656	4.17043	4.12615	4.06997	4.04379	4.00439	3.99158	3.98028	3.97212	3.97813	3.96375	3.92776	3.89733	3.87828	3.84636	3.8067	3.79399	3.77529	3.77972	3.76457	3.7654	3.78132	3.80503	3.84879	3.88452	3.93195	3.99764	4.07906	4.17606	4.22429	4.26179	4.2181	4.17551	4.15782	4.13122	4.10764	4.07859	4.07295	4.12081	4.18645	4.26398	4.35011	4.32491	4.19397	4.09284	4.03678	4.03956	4.07984	4.24468	4.30364	4.31593	4.3088	4.30898	4.34231	4.36051	4.3555	4.36013	4.29613	4.28311	4.24292	4.21891	4.18834	4.15027	4.12423	4.10716	4.06759	4.0556	4.0195	4.03646	4.06347	4.07911	4.09019	4.06833	4.02827	3.99371	3.96474	3.94276	3.92844	3.91199	3.88863	3.9277	3.98807	4.04448	4.0898	4.11556	4.1284	4.14761	4.18625	4.21234	4.22264	4.23469	4.26769	4.26233	4.24791	4.22646	4.20179	4.16547	4.18311	4.1543	4.04018	3.92151	3.86226	3.69846	3.65446	3.66257	3.73145	3.83124	3.96378	4.01494	4.02182	4.02632	4.0664	4.10802	4.1305	4.15464	4.19491	4.25143	4.3198	4.34297	4.2763	4.26804	4.31692	4.27905	4.2633	4.23375	4.21971	4.2085	4.19195	4.17195	4.17009	4.16763	4.168	4.16622	4.12403	4.09783	4.02455	4.01372	4.01391	4.03052	4.03179	4.04329	4.0935	4.12706	4.19578	4.27194	4.35454	4.41374	4.45875	4.46565	4.47278	4.41378	4.41184	4.39177	4.40253	4.41022	4.38291	4.36259	4.37688	4.40411	4.41185	4.40672	4.3955	4.359	4.35649	4.41542	4.41985	4.37559	4.32505	4.22227	4.18589	4.15959	4.17544	4.20117	4.22853	4.25926	4.30295	4.28684	4.26962	4.33457	4.38211	4.40827	4.40607	4.38378	4.31044	4.20406	4.13499	4.05714	3.9926	3.94301	3.90345	3.90279	3.90392	3.98324	4.04175	4.1086	4.16942	4.22231	4.26814	4.20403	4.19511	4.17359	4.01515	3.96593	3.97738	4.05947	4.1333	4.14865	4.18689	4.14379	4.05362	3.97765	3.5876	3.59058	3.77332	3.92865	4.06044	4.1011	4.07829	3.97486	4.03636	4.07527	4.16775	4.2125	4.27749	4.26774	4.23663	4.1777	4.14029	4.20839	4.24431	4.3234	4.29992	4.27859	4.06856	3.86529	3.70576	3.59291	3.57954	3.66152	3.72558	3.79095	3.82468	3.90957	3.9048	4.11537	4.26254	4.28048	4.29797	4.22146	3.85525	3.56121	3.47937	3.56836	3.67917	3.74475	3.75737	3.79313	3.83164	3.86856	3.84022	3.81509	3.87809	3.94114	4.00297	4.06643	4.09803	4.11474	4.11247	4.10054	4.10023	4.10238	4.12569	4.12503	4.12577	4.10672	4.08264	4.04155	4.00494	3.97377	3.97559	3.96953	3.95393	3.95429	3.95857	3.97157	3.94117	3.94411	3.9155	3.87814	3.85115	3.80036	3.72139	3.66512	3.6494	3.67147	3.64555	3.62734	3.62362	3.64878	3.69009	3.73998	3.79021	3.84607	3.89242	3.96737	4.0218	4.10584	4.17397	4.18868	4.16762	4.11255	4.14477	4.18338	4.23761	4.3675	4.39084	4.43023	4.47065	4.49125	4.49517	4.50775	4.47396	4.42527	4.38084	4.33848	4.29209	4.24673	4.18275	4.13571	4.13321	4.13264	4.13423	4.15353	4.18299	4.18709	4.2276	4.27654	4.28705	4.27289	4.26661	4.26405	4.22973	4.22153	4.20467	4.20905	4.22211	4.23769	4.24458	4.273	4.27789	4.26425	4.33654	4.38128	4.40616	4.43387	4.39705	4.29258	4.22751	4.19619	4.14172	4.05864	4.00923	3.93776	4.02623	4.21463	4.36642	4.61005	4.69607	4.7726	4.75591	4.7167	4.66044	4.65614	4.70305	4.73453	4.78146	4.8431	4.8853	4.94565	4.96031	4.93904	4.91272	4.92517	4.94805	4.95954	4.98641	5.00956	5.04491	5.07236	5.15586	5.26055	5.40697	5.56064	5.7337	5.91638	6.07005	6.21051	6.37397	6.49807	6.62474	6.76298	6.94236	7.07496	7.18039	7.28101	7.3567	7.45651	7.55032	7.71353	8.02469	8.41104	8.8684	9.31698	9.95732	10.6211	11.5174	12.5243	13.6837	14.7827	16.0989	17.6274	19.5317	21.6553	24.2036	26.8812	29.7634	34.3735	42.3358	50.2119	61.1392	70.6004	92.7685	111.278	145.907	171.254	187.805	185.548	172.76	146.603	118.557	95.6894	75.2224	60.7643	50.6835	43.0135	36.0877	29.9439	25.9993	24.0894	20.7895	19.4996	17.1885	15.8798	14.8073	13.8111	12.6821	11.8223	11.0972	10.4415	9.84097	9.26536	8.68102	8.17694	7.75633	7.40773	7.12102	6.88338	6.70705	6.47943	6.37059	6.33014	6.29829	6.26412	6.15032	6.05485	5.9896	5.97043	5.89867	5.83719	5.78005	5.70533	5.64035	5.53186	5.46276	5.37956	5.29899	5.25046	5.17998	5.08758	4.97641	4.84813	4.74633	4.70189	4.63169	4.58178	4.56745	4.55591	4.54083	4.5261	4.50982	4.5129	4.59171	4.59372	4.60903	4.614	4.61372	4.5719	4.45606	4.36161	4.26688	4.17862	4.18208	4.41704	4.4433	4.3603	4.33936	4.34973	4.36224	4.38755	4.38782	4.38147	4.36435	4.28034	4.18939	4.12288	4.08787	4.05518	3.99223	3.92001	3.87734	3.85015	3.85157	3.88462	3.98954	4.12032	4.20034	4.21508	4.14546	4.10352	4.07303	4.03512	4.00451	3.97262	3.95481	3.93493	3.90835	3.89798	3.86185	3.83936	3.87611	3.89585	3.95045	3.97615	3.9471	3.89688	3.85811	3.81594	3.75432	3.69587	3.61999	3.6038	3.56937	3.57748	3.56713	3.56255	3.57006	3.59347	3.57819	3.57364	3.55668	3.53317	3.49357	3.46856	3.45822	3.47927	3.48807	3.50651	3.52162	3.53935	3.56458	3.62019	3.65858	3.71007	3.77201	3.82848	3.88166	3.9348	3.96291	3.95578	3.95115	3.94654	3.93357	3.93962	3.94088	3.91649	3.85049	3.80918	3.75554	3.74041	3.73569	3.72645	3.71482	3.71151	3.70387	3.69057	3.60472	3.5104	3.45416	3.40458	3.33721	3.22346	3.22787	3.26629	3.40277	3.59674	3.55218	3.50829	3.49857	3.50428	3.49866	3.5028	3.5758	3.62865	3.67045	3.71726	3.74005	3.7837	3.78663	3.77627	3.75106	3.74275	3.72137	3.74738	3.78447	3.7637	3.70422	3.69382	3.67261	3.70737	3.74084	3.76287	3.75404	3.74271	3.74036	3.74448	3.76101	3.75774	3.77312	3.78417	3.80498	3.80714	3.829	3.82197	3.73883	3.69053	3.67469	3.67707	3.69082	3.74299	3.80839	3.83299	3.86151	3.88615	3.87769	3.85457	3.82766	3.81083	3.80379	3.77692	3.73968	3.72998	3.71128	3.69371	3.64778	3.62113	3.54882	3.45807	3.43953	3.46119	3.4845	3.56014	3.62777	3.66013	3.70792	3.71795	3.7286	3.69071	3.65978	3.6668	3.71026	3.78354	3.81936	3.82709	3.77069	3.76336	3.75571	3.71118	3.68718	3.67326	3.71108	3.74108	3.80565	3.81068	3.87107	3.892	3.92288	3.96353	3.98754	4.00025	4.01413	3.9524	3.91175	3.86025	3.77866	3.73125	3.71779	3.66953	3.62119	3.59522	3.58542	3.59372	3.5999	3.62007	3.67804	3.70409	3.73198	3.76332	3.78204	3.79641	3.81615	3.82864	3.82433	3.77822	3.72073	3.68102	3.62424	3.55195	3.49081	3.45229	3.45038	3.46639	3.48063	3.52559	3.57322	3.64409	3.70004	3.79926	3.88554	3.94897	4.02261	4.08959	4.13274	4.1202	4.10979	4.06219	3.98327	3.92631	3.89887	3.89178	3.83381	3.80782	3.7433	3.741	3.7074	3.66694	3.64152	3.68126	3.72434	3.77458	3.80191	3.84611	3.87004	3.88358	3.88857	3.89896	3.90086	3.97565	3.99832	3.9821	3.97126	3.95515	3.92065	3.91788	3.87078	3.85991	3.86679	3.88068	3.8787	3.87144	3.87026	3.89248	3.86875	3.82112	3.75408	3.68702	3.62524	3.61151	3.60732	3.68239	3.75755	3.75762	3.7932	3.83117	3.82916	3.78364	3.81567	3.85562	3.91775	3.98497	4.05125	4.11339	4.14194	4.07565	3.94687	3.70113	3.42903	3.30174	3.25635	3.59322	3.78503	3.80873	3.75314	3.75388	3.73347	3.69858	3.65836	3.65319	3.64641	3.71542	3.70284	3.61576	3.54666	3.49745	3.47556	3.47908	3.50951	3.55244	3.62632	3.71517	3.82821	3.87142	3.83807	3.81476	3.79648	3.76166	3.73463	3.71256	3.6718	3.65789	3.65852	3.66296	3.67447	3.65425	3.58521	3.57096	3.56685	3.5413	3.5404	3.52795	3.53227	3.5162	3.5404	3.58007	3.59067	3.60823	3.60348	3.55419	3.54615	3.55282	3.59367	3.61214	3.61687	3.63968	3.6629	3.71297	3.75317	3.75242	3.77954	3.79777	3.83641	3.8557	3.86679	3.88572	3.88092	3.87969	3.83507	3.79995	3.78157	3.78008	3.7729	3.74342	3.73116	3.71881	3.68704	3.64944	3.65432	3.68059	3.77831	3.90398	3.97542	4.01386	4.03433	4.11751	4.18578	4.21725	4.20239	4.19276	4.14901	4.05587	4.08928	4.04166	4.01852	4.01639	3.99904	4.02901	4.06781	4.1391	4.11305	4.08556	4.07263	4.0483	4.06825	4.05693	4.0565	4.05441	4.03113	3.91561	3.74141	3.55552	3.44559	3.36508	3.32844	3.33291	3.3841	3.49453	3.64607	3.80927	3.94704	4.0398	3.83408	3.85536	3.89117	3.91803	3.9403	3.93662	3.92329	3.89451	3.87662	3.85079	3.85324	3.89399	3.90617	3.93422	3.95017	3.9365	3.91034	3.88411	3.86545	3.84671	3.7398	3.58347
