Acq. time (s)=	4
Accumulations=	3
Range=	Off
Autofocus=	At all XY pixels
SWIFT=	Off
AutoExposure=	Off
Spike filter=	Multiple accum.
Delay time (s)=	0
Binning=	1
Readout mode=	Signal
DeNoise=	Standard
ICS correction=	On
Dark correction=	Off
Inst. Process=	Off
Instrument=	LabRAM S3000
Detector=	Synapse
Objective=	x100
Grating=	1800
ND Filter=	25%
Laser (nm)=	632.81 
Spectro (cm-¹)=	521.228
Slit=	100.021
Hole=	199.981
Microscope=	Principal
StageXY=	Märzhauser
StageZ=	Märzhauser
Z (µm)=	-926.6
Project=	
Sample=	
Site=	
Title=	SOP_200nm_furu_p0.5
Remark=	
Date=	14.06.2019 12:14
Operator=	
Acquired=	14.06.2019 12:14:13
		358.285	358.609	358.934	359.26	359.585	359.909	360.235	360.56	360.886	361.21	361.535	361.859	362.185	362.51	362.834	363.16	363.485	363.809	364.135	364.459	364.784	365.108	365.434	365.758	366.083	366.407	366.733	367.057	367.381	367.705	368.03	368.355	368.68	369.004	369.328	369.652	369.978	370.302	370.626	370.95	371.274	371.598	371.923	372.248	372.572	372.896	373.22	373.544	373.868	374.192	374.516	374.84	375.164	375.49	375.813	376.137	376.461	376.785	377.109	377.433	377.757	378.081	378.404	378.728	379.052	379.376	379.699	380.023	380.347	380.671	380.994	381.318	381.642	381.965	382.288	382.611	382.935	383.258	383.582	383.906	384.229	384.553	384.876	385.2	385.522	385.845	386.169	386.492	386.816	387.139	387.463	387.785	388.108	388.431	388.755	389.078	389.402	389.723	390.047	390.37	390.693	391.015	391.338	391.662	391.985	392.307	392.63	392.953	393.276	393.598	393.921	394.244	394.566	394.889	395.212	395.535	395.857	396.18	396.503	396.825	397.148	397.471	397.792	398.115	398.437	398.76	399.083	399.404	399.727	400.049	400.372	400.694	401.016	401.339	401.66	401.983	402.304	402.627	402.95	403.271	403.594	403.915	404.238	404.559	404.882	405.203	405.526	405.847	406.17	406.491	406.814	407.135	407.456	407.778	408.1	408.422	408.743	409.066	409.387	409.708	410.03	410.351	410.674	410.995	411.316	411.638	411.959	412.282	412.602	412.923	413.246	413.567	413.888	414.21	414.531	414.852	415.174	415.495	415.815	416.136	416.458	416.779	417.1	417.421	417.743	418.064	418.384	418.705	419.027	419.348	419.668	419.989	420.311	420.632	420.952	421.273	421.593	421.914	422.236	422.556	422.877	423.197	423.518	423.838	424.16	424.481	424.801	425.121	425.442	425.762	426.083	426.403	426.723	427.044	427.365	427.686	428.006	428.326	428.647	428.967	429.287	429.607	429.927	430.248	430.568	430.888	431.208	431.528	431.848	432.169	432.489	432.809	433.129	433.449	433.769	434.088	434.408	434.728	435.048	435.368	435.688	436.008	436.327	436.647	436.967	437.287	437.606	437.926	438.245	438.565	438.885	439.205	439.523	439.843	440.163	440.483	440.802	441.121	441.44	441.76	442.08	442.4	442.718	443.037	443.357	443.677	443.995	444.315	444.634	444.954	445.272	445.591	445.911	446.229	446.549	446.868	447.186	447.506	447.825	448.143	448.463	448.782	449.1	449.419	449.739	450.057	450.376	450.695	451.013	451.333	451.65	451.97	452.288	452.607	452.926	453.244	453.563	453.881	454.2	454.518	454.837	455.155	455.474	455.792	456.111	456.428	456.748	457.065	457.384	457.702	458.021	458.338	458.658	458.975	459.294	459.612	459.929	460.248	460.566	460.884	461.202	461.519	461.838	462.156	462.475	462.792	463.109	463.428	463.746	464.063	464.382	464.699	465.016	465.335	465.652	465.97	466.288	466.606	466.923	467.242	467.559	467.876	468.193	468.512	468.829	469.146	469.463	469.782	470.099	470.416	470.733	471.05	471.369	471.686	472.003	472.32	472.637	472.954	473.272	473.589	473.906	474.223	474.54	474.857	475.174	475.492	475.809	476.126	476.442	476.759	477.076	477.393	477.71	478.026	478.343	478.66	478.977	479.293	479.61	479.928	480.245	480.562	480.878	481.195	481.512	481.828	482.145	482.461	482.777	483.093	483.41	483.726	484.043	484.359	484.676	484.992	485.309	485.625	485.942	486.258	486.575	486.889	487.206	487.522	487.839	488.155	488.471	488.788	489.104	489.419	489.735	490.051	490.368	490.684	490.999	491.315	491.631	491.947	492.264	492.578	492.895	493.211	493.527	493.842	494.158	494.474	494.79	495.104	495.421	495.737	496.051	496.367	496.683	496.998	497.314	497.63	497.944	498.26	498.576	498.891	499.206	499.522	499.837	500.153	500.469	500.783	501.099	501.413	501.729	502.043	502.359	502.675	502.989	503.305	503.619	503.935	504.249	504.565	504.879	505.195	505.509	505.825	506.139	506.454	506.769	507.084	507.398	507.714	508.028	508.343	508.658	508.973	509.287	509.601	509.917	510.231	510.546	510.86	511.174	511.489	511.803	512.119	512.433	512.747	513.062	513.376	513.69	514.005	514.319	514.633	514.948	515.262	515.576	515.891	516.204	516.518	516.832	517.147	517.461	517.775	518.088	518.403	518.717	519.031	519.344	519.659	519.973	520.287	520.6	520.914	521.229	521.542	521.856	522.169	522.483	522.797	523.111	523.425	523.738	524.052	524.365	524.679	524.992	525.305	525.62	525.934	526.247	526.56	526.874	527.187	527.5	527.814	528.127	528.44	528.753	529.067	529.38	529.693	530.006	530.32	530.633	530.946	531.259	531.572	531.885	532.198	532.512	532.825	533.138	533.451	533.764	534.077	534.39	534.702	535.015	535.328	535.641	535.953	536.266	536.579	536.892	537.204	537.517	537.83	538.142	538.455	538.768	539.08	539.392	539.705	540.018	540.331	540.642	540.955	541.268	541.58	541.893	542.204	542.517	542.83	543.141	543.454	543.766	544.079	544.39	544.703	545.015	545.327	545.639	545.952	546.263	546.575	546.888	547.199	547.511	547.824	548.135	548.447	548.76	549.071	549.383	549.694	550.007	550.319	550.63	550.942	551.253	551.565	551.876	552.189	552.5	552.812	553.123	553.435	553.746	554.058	554.369	554.681	554.992	555.304	555.615	555.927	556.237	556.55	556.86	557.172	557.483	557.795	558.106	558.416	558.728	559.039	559.351	559.662	559.972	560.284	560.595	560.905	561.217	561.528	561.838	562.15	562.46	562.771	563.083	563.393	563.704	564.015	564.326	564.636	564.947	565.258	565.569	565.879	566.189	566.501	566.811	567.122	567.432	567.743	568.054	568.364	568.674	568.984	569.296	569.606	569.916	570.226	570.536	570.847	571.158	571.468	571.778	572.088	572.398	572.708	573.018	573.329	573.639	573.95	574.26	574.57	574.88	575.19	575.5	575.81	576.12	576.429	576.739	577.049	577.359	577.669	577.979	578.289	578.598	578.908	579.218	579.528	579.837	580.147	580.457	580.767	581.076	581.386	581.694	582.004	582.314	582.623	582.933	583.242	583.552	583.862	584.171	584.479	584.789	585.098	585.408	585.718	586.027	586.335	586.645	586.954	587.263	587.573	587.881	588.19	588.5	588.809	589.119	589.426	589.736	590.045	590.354	590.662	590.972	591.281	591.589	591.898	592.207	592.515	592.824	593.134	593.441	593.751	594.06	594.367	594.677	594.986	595.294	595.603	595.912	596.219	596.528	596.836	597.145	597.454	597.762	598.071	598.378	598.687	598.995	599.304	599.611	599.92	600.228	600.537	600.846	601.153	601.462	601.77	602.077	602.386	602.693	603.002	603.309	603.618	603.926	604.234	604.542	604.85	605.158	605.465	605.774	606.081	606.39	606.697	607.004	607.313	607.62	607.927	608.236	608.543	608.85	609.159	609.466	609.773	610.081	610.389	610.696	611.004	611.311	611.618	611.925	612.234	612.541	612.848	613.155	613.463	613.77	614.077	614.384	614.691	614.999	615.306	615.613	615.92	616.227	616.535	616.842	617.149	617.456	617.762	618.069	618.376	618.684	618.991	619.298	619.604	619.911	620.218	620.524	620.831	621.138	621.444	621.751	622.058	622.366	622.672	622.979	623.286	623.592	623.899	624.205	624.512	624.818	625.125	625.431	625.738	626.044	626.349	626.656	626.962	627.269	627.575	627.881	628.188	628.494	628.8	629.107	629.413	629.719	630.024	630.331	630.637	630.943	631.25	631.556	631.861	632.167	632.473	632.779	633.085	633.392	633.696	634.003	634.309	634.615	634.919	635.226	635.532	635.838	636.142	636.448	636.754	637.06	637.365	637.671	637.977	638.282	638.588	638.894	639.198	639.504	639.81	640.114	640.42	640.726	641.031	641.337	641.642	641.947	642.253	642.557	642.863	643.169	643.473	643.779	644.083	644.389	644.693	644.999	645.305	645.609	645.914	646.219	646.524	646.829	647.134	647.438	647.744	648.048	648.354	648.658	648.962	649.268	649.572	649.877	650.181	650.487	650.791	651.095	651.4	651.704	652.01	652.314	652.618	652.923	653.227	653.533	653.836	654.14	654.446	654.75	655.054	655.357	655.663	655.967	656.27	656.576	656.879	657.183	657.488	657.792	658.096	658.4	658.705	659.009	659.312	659.616	659.92	660.225	660.529	660.832	661.136	661.44	661.745	662.048	662.352	662.655	662.959	663.263	663.566	663.871	664.175	664.478	664.782	665.085	665.389	665.692	665.996	666.299	666.602	666.906	667.209	667.514	667.817	668.121	668.424	668.728	669.031	669.334	669.638	669.941	670.244	670.547	670.851	671.154	671.456	671.759	672.062	672.365	672.669	672.972	673.275	673.578	673.881	674.184	674.487	674.791	675.092	675.395	675.698	676.002	676.305	676.608	676.911	677.212	677.515	677.818	678.121	678.424	678.726	679.029	679.332
-20	-20	4.234	4.30577	4.37982	4.38918	4.27238	4.16732	4.08424	4.05252	4.01285	3.98133	3.9992	4.02102	4.04002	4.0898	4.16261	4.2086	4.23929	4.23731	4.19721	4.10493	3.99921	3.81684	3.90887	4.00803	4.08953	4.05402	3.98525	3.87859	3.78336	3.80898	3.81957	3.94328	4.01388	4.08958	4.16304	4.22908	4.22014	4.2084	4.20498	4.19791	4.20575	4.20635	4.22191	4.2373	4.25463	4.2689	4.22603	4.22083	4.21162	4.21642	4.21631	4.22307	4.23347	4.24476	4.24784	4.22819	4.23872	4.24215	4.25097	4.25607	4.26613	4.26113	4.25643	4.23594	4.20664	4.18798	4.17067	4.15165	4.13341	4.115	4.09683	4.07955	4.06224	4.04652	4.03068	4.01698	4.00312	3.99175	3.98013	3.97374	3.96388	3.95976	3.95197	3.95004	3.94447	3.9446	3.94137	3.94339	3.94669	3.95145	3.95781	3.96403	3.97157	3.91094	3.66598	3.38514	3.97664	4.00316	4.00884	4.01136	4.015	4.01497	4.01563	4.01253	4.00911	4.00277	3.99522	3.98617	3.97539	3.96434	3.95142	3.9393	3.92571	3.91358	3.90091	3.88936	3.87928	3.8709	3.86367	3.9019	3.92377	3.9502	4.01687	4.09786	4.10002	4.0996	4.0949	4.11376	4.12377	4.14972	4.34882	4.64686	4.79753	4.80972	4.78859	4.71573	4.57722	4.37333	4.19123	4.04736	3.97825	3.95033	3.89848	3.88784	3.85594	3.90083	3.94709	4.00919	4.07836	4.15044	4.22368	4.2954	4.36581	4.43124	4.43652	4.41241	4.39084	4.36414	4.32924	4.28578	4.23986	4.1734	4.12205	4.05503	4.01489	3.98356	3.95867	3.9374	3.91933	3.90581	3.9238	3.91934	3.93464	3.95322	3.97326	3.99579	4.01986	4.04737	4.07205	4.07155	4.06641	4.06958	4.07593	4.08385	4.09004	4.0971	4.10535	4.11398	4.12417	4.13382	4.14549	4.14584	4.14426	4.13804	4.12814	4.11999	4.11697	4.10986	4.10694	4.1018	4.09933	4.09717	4.09566	4.0866	4.09427	4.0953	4.10018	4.08215	4.03205	4.01063	4.04092	4.06718	4.08877	4.1125	4.1606	4.17399	4.18959	4.20475	4.21721	4.22882	4.22659	4.21596	4.18759	4.14385	4.05979	3.98242	3.91652	3.8817	3.99682	4.30405	4.29139	4.27979	4.27083	4.12931	4.004	3.94247	3.93245	3.96886	4.06317	4.15336	4.23851	4.2966	4.30087	4.29698	4.29337	4.30803	4.32086	4.33173	4.34578	4.35669	4.3714	4.382	4.39615	4.4075	4.42047	4.42036	4.40769	4.40118	4.39364	4.37955	4.37058	4.35592	4.34326	4.32764	4.31327	4.2973	4.28116	4.25968	4.22894	4.19498	4.15908	4.14276	4.12854	4.12507	4.09949	4.05389	4.00785	3.95869	3.91596	3.86771	3.81684	3.7579	3.77204	3.79537	3.95697	4.06272	4.17264	4.23327	4.23543	4.25284	4.28458	4.30359	4.32681	4.35065	4.37415	4.39732	4.41532	4.40777	4.42349	4.43256	4.44058	4.44416	4.44238	4.41141	4.36974	4.35556	4.3123	4.27381	4.24111	4.21004	4.1889	4.15934	4.21165	4.24995	4.31289	4.38102	4.44874	4.44668	4.43331	4.43194	4.41986	4.41627	4.41428	4.41488	4.42183	4.41753	4.40007	4.32153	4.21887	4.11871	4.02229	3.97748	3.94845	3.92612	3.9542	3.99126	4.03512	4.07538	4.1385	4.21174	4.22657	4.24346	4.27334	4.31691	4.35117	4.38445	4.42535	4.45944	4.4703	4.46416	4.41376	4.37366	4.31886	4.26774	4.2147	4.16455	4.13201	4.10154	4.06915	4.07002	4.08387	4.10022	4.09877	4.09917	4.18761	4.22247	4.25955	4.29052	4.32366	4.35002	4.38007	4.40063	4.42538	4.40381	4.39006	4.3676	4.44528	4.31769	4.27504	4.22741	4.17639	4.16223	4.14259	4.11223	4.08515	4.0648	4.00724	3.97414	3.99471	4.07598	4.13026	4.16138	4.12869	4.09853	4.06784	4.0443	4.01211	3.99369	3.98057	3.96703	3.99744	4.09576	4.15707	4.22518	4.30861	4.36763	4.46155	4.53806	4.55789	4.56453	4.54659	4.52524	4.46953	4.42643	4.37954	4.33932	4.30173	4.25509	4.24013	4.24368	4.25774	4.29484	4.35011	4.37066	4.39373	4.42813	4.46036	4.49191	4.52617	4.55888	4.59461	4.63014	4.63326	4.63312	4.61466	4.59687	4.58027	4.56042	4.55485	4.53545	4.53052	4.51913	4.51886	4.54214	4.56033	4.59368	4.61017	4.62727	4.63031	4.61208	4.57521	4.59658	4.62166	4.65613	4.82421	4.9356	5.0186	5.09052	5.16961	5.25375	5.34525	5.43262	5.53925	5.66895	5.75398	5.86631	5.96792	6.07677	6.18759	6.314	6.44774	6.59902	6.76973	7.01815	7.28739	7.75618	8.11569	8.39669	8.88215	9.32882	9.94074	10.6764	11.4694	12.5473	13.9502	15.7797	17.9738	20.5891	24.2945	28.7134	34.1576	40.9407	49.0601	57.6648	68.4302	77.5955	84.2722	84.7429	72.4028	61.8069	50.3681	41.1799	35.4061	27.2588	22.5004	20.9025	18.705	16.4518	14.7905	13.5353	12.3352	11.328	10.4477	9.69171	9.04133	8.3545	7.89823	7.44917	6.99112	6.65834	6.3823	6.17017	6.01747	5.89731	5.82181	5.72886	5.64491	5.52989	5.41898	5.31754	5.21114	5.18232	5.09058	4.95315	4.83698	4.77624	4.75508	4.72816	4.70052	4.67643	4.66695	4.67026	4.60609	4.60565	4.61342	4.68323	4.71996	4.7277	4.71494	4.66988	4.61794	4.56325	4.50522	4.46713	4.433	4.4005	4.37576	4.36343	4.36233	4.39491	4.42848	4.45183	4.44861	4.44007	4.42418	4.40407	4.37643	4.33594	4.30462	4.28251	4.26959	4.26178	4.27223	4.30565	4.33348	4.32362	4.30648	4.28496	4.2528	4.22043	4.18835	4.15568	4.12477	4.08878	4.06446	4.03479	3.99691	3.97714	3.95414	3.90831	3.90316	3.90185	3.90438	3.91072	3.92073	3.93423	3.95098	3.97675	4.0052	4.01956	4.04438	4.05954	4.08482	4.08469	4.07796	4.09489	4.11049	4.11683	4.1276	4.13329	4.15507	4.15237	4.12108	4.10803	4.09654	4.07984	4.0665	4.04593	4.02224	3.99129	3.95795	3.93042	3.90641	3.8799	3.86345	3.84817	3.83409	3.82513	3.81001	3.80718	3.80285	3.79926	3.79818	3.79949	3.80296	3.80837	3.81546	3.82397	3.83357	3.84507	3.85529	3.86461	3.87136	3.865	3.85731	3.84823	3.838	3.82666	3.81405	3.80037	3.78583	3.7707	3.75529	3.7398	3.72448	3.70957	3.69529	3.68189	3.66964	3.65883	3.64952	3.64193	3.63603	3.63188	3.62948	3.62884	3.6298	3.63316	3.63766	3.64384	3.65169	3.66038	3.67114	3.68179	3.69466	3.70635	3.71225	3.71509	3.72878	3.72917	3.75827	3.78528	3.79744	3.80859	3.81342	3.82336	3.83511	3.844	3.85521	3.86313	3.87404	3.88162	3.8863	3.88106	3.88017	3.87946	3.92041	3.93512	3.94971	3.94192	3.91385	3.91143	3.92439	3.92891	3.93143	3.93611	3.92766	3.82932	3.7938	3.76041	3.72686	3.74187	3.75805	3.78298	3.92414	3.98455	4.03601	4.06019	4.10441	4.09483	4.05883	4.01968	3.97575	3.92131	3.8411	3.77185	3.64379	3.64439	3.64796	3.70459	3.73733	3.78858	3.82213	3.83698	3.83498	3.8214	3.80461	3.80593	3.80001	3.79615	3.79313	3.79079	3.7926	3.81095	3.81445	3.81242	3.81351	3.81193	3.81061	3.81198	3.81084	3.80954	3.81463	3.81653	3.82557	3.83157	3.84252	3.85104	3.86418	3.92268	3.93924	3.93864	3.93969	3.84413	3.67692	3.57361	3.7751	3.91746	3.91178	3.90393	3.8784	3.73369	3.72496	3.75839	3.76824	3.74473	3.72339	3.70443	3.68808	3.6745	3.66383	3.65617	3.65158	3.65436	3.65519	3.65798	3.65837	3.664	3.67109	3.67942	3.68878	3.69894	3.70971	3.72085	3.73222	3.74353	3.75491	3.76617	3.7771	3.78761	3.79771	3.80727	3.81613	3.82418	3.83122	3.83715	3.84177	3.84504	3.80977	3.7712	3.73724	3.77571	3.80537	3.82545	3.78224	3.78422	3.78954	3.79411	3.80263	3.80013	3.7953	3.79464	3.79247	3.79377	3.79468	3.79818	3.80264	3.80826	3.81582	3.8227	3.83192	3.8394	3.84933	3.83842	3.82568	3.81997	3.82297	3.82779	3.83057	3.83079	3.83529	3.83663	3.8413	3.84332	3.84718	3.84996	3.85252	3.85562	3.8577	3.86248	3.86477	3.87076	3.87527	3.88748	3.90227	3.96255	3.96258	3.95799	3.95446	3.94795	3.94352	3.92053	3.8976	3.87676	3.86194	3.84912	3.85066	3.8551	3.85239	3.85746	3.85002	3.84617	3.84123	3.83903	3.83716	3.83819	3.84071	3.84452	3.84347	3.85455	3.8691	3.88479	3.90365	3.92335	3.94497	3.96844	3.99205	4.01537	4.01331	4.00218	4.00722	3.98118	3.95576	3.92814	3.90153	3.87542	3.84945	3.82619	3.80183	3.78188	3.75987	3.74354	3.7244	3.71095	3.69415	3.69195	3.67898	3.6703	3.65954	3.65214	3.64374	3.6409	3.62382	3.60441	3.58982	3.59236	3.60193	3.61581	3.63	3.65081	3.67043	3.68594	3.70303	3.7215	3.74101	3.76114	3.78159	3.80213	3.82251	3.84254	3.86209	3.87948	3.8973	3.91332	3.92967	3.94424	3.95883	3.97152	3.98136	3.98431	3.98279	3.98245	3.98174	3.98222	3.98493	3.9821	3.97786	3.9652	3.92912	3.89153	3.85437	3.82213	3.7878	3.75747	3.7287	3.67829	3.67327	3.6679	3.70951	3.73821	3.77448	3.8008	3.81648	3.83003	3.85611	3.88607	3.91628	3.94792	3.97262	3.99234	4.01971	4.07994	4.10677	4.09445	4.07539	4.04183	4.00939	3.95156	3.91289	3.89597	3.86835	3.84647	3.82026	3.79706	3.77417	3.74176	3.70575	3.67129	3.6428	3.6138	3.59234	3.60394	3.59219	3.58548	3.58339	3.58313	3.58436	3.59434	3.60238	3.61872	3.63339	3.65549	3.67624	3.70335	3.72941	3.76077	3.79133	3.82618	3.86057	3.86986	3.82506	3.77377	3.7241	3.67747	3.6308	3.58935	3.54793	3.64581	3.69752	3.74033	3.79759	3.45112	3.17677	2.87805
-20	0	4.19872	4.29591	4.34784	4.37535	4.42666	4.47114	4.48982	4.51822	4.53289	4.51509	4.47296	4.37198	4.28076	4.1929	4.12009	4.04811	3.97341	3.92619	3.89334	3.87545	3.86269	3.86508	3.90514	3.96865	4.0456	4.11211	4.18954	4.23016	4.21701	4.23091	4.19162	4.1681	4.17052	4.1965	4.226	4.26767	4.312	4.35109	4.40713	4.45122	4.42995	4.40515	4.37138	4.35454	4.33681	4.32166	4.30769	4.29309	4.30452	4.30631	4.31315	4.31694	4.33027	4.3263	4.31711	4.31072	4.30182	4.29363	4.28499	4.27533	4.25785	4.23801	4.19795	4.17392	4.13306	4.13949	4.12746	4.12953	4.12737	4.13969	4.14839	4.20329	4.2241	4.2415	4.25615	4.27375	4.27002	4.26907	4.23271	4.18194	4.14944	4.14055	4.14361	4.17578	4.20544	4.22947	4.25529	4.24778	4.25678	4.24388	4.26239	4.24783	4.19218	4.13338	4.07927	4.09485	4.10198	4.09235	4.10575	4.14644	4.26735	4.42347	4.56811	4.5633	4.53242	4.52725	4.50988	4.48159	4.43678	4.39083	4.28151	4.14231	3.99464	3.92419	3.79482	3.86539	3.96543	4.11828	4.24946	4.37452	4.42749	4.43988	4.43356	4.42462	4.40778	4.38929	4.37507	4.34906	4.32458	4.2939	4.26984	4.24585	4.19397	4.2104	4.11112	4.09524	4.13059	4.15885	4.19037	4.25092	4.26764	4.30175	4.30536	4.31977	4.31806	4.29082	4.20132	4.14359	4.09672	4.07149	4.03711	3.98148	3.95315	3.97291	3.98521	4.03398	4.15007	4.19496	4.2297	4.26111	4.22783	4.25821	4.26894	4.28186	4.26426	4.25583	4.23875	4.17336	3.90651	3.84773	3.8889	3.89256	3.90662	3.92069	3.93373	3.96455	4.00602	4.04595	4.09171	4.13512	4.18274	4.22329	4.27024	4.31425	4.35938	4.40573	4.41708	4.42656	4.44175	4.42932	4.41533	4.37759	4.33006	4.26937	4.19986	4.15425	4.11029	4.06654	4.04452	4.02041	4.01096	3.98434	3.99089	4.01359	4.02965	4.06629	4.10664	4.14258	4.18937	4.25501	4.3355	4.35789	4.40046	4.43103	4.47262	4.49439	4.48412	4.47218	4.45527	4.41339	4.36766	4.31705	4.25096	4.20551	4.13497	4.0791	4.05059	4.04266	4.05444	4.10595	4.16083	4.22239	4.29107	4.21597	4.20404	4.22687	4.21739	4.18948	4.17169	4.22404	4.26058	4.29185	4.31534	4.34379	4.36975	4.39339	4.419	4.43387	4.41888	4.42741	4.41881	4.40563	4.41577	4.42437	4.43868	4.44833	4.41569	4.35478	4.27463	4.2051	4.13612	4.09818	4.07814	4.1107	4.17181	4.23792	4.31216	4.3535	4.40727	4.43528	4.40223	4.34651	4.28418	4.2379	4.1825	4.11959	4.12181	4.12395	4.22928	4.22419	4.17713	4.11468	4.04082	4.0139	4.03884	4.06775	4.11279	4.16143	4.21404	4.25668	4.29462	4.33748	4.34087	4.35491	4.39064	4.406	4.43673	4.45583	4.42641	4.38707	4.31195	4.2516	4.15234	4.10044	4.06972	4.0615	4.06468	3.97211	3.92151	3.84102	3.79212	3.7827	3.86117	3.94969	4.05412	4.15448	4.19549	4.23389	4.24878	4.2718	4.28193	4.30187	4.34894	4.37543	4.42733	4.46589	4.48892	4.38501	4.23478	4.12105	4.05955	4.0871	4.15298	4.24031	4.26259	4.2135	4.16045	4.12791	4.01713	3.99804	3.98792	3.99968	4.01926	4.04067	4.04556	4.02496	4.02822	4.02314	4.02096	4.00108	3.98925	3.97141	3.95867	3.95191	3.96388	3.95856	3.93495	3.92908	3.90426	3.91431	3.90039	3.9379	3.97234	4.01696	4.06347	4.10946	4.16304	4.21373	4.26525	4.31424	4.36673	4.41006	4.4589	4.49287	4.5098	4.50143	4.46225	4.40375	4.3374	4.27139	4.23925	4.24153	4.24494	4.23987	4.2512	4.21959	4.17266	4.15639	4.11946	4.08287	4.03681	3.99844	3.9523	3.99969	3.91563	4.02198	4.14587	4.24435	4.33927	4.43526	4.4591	4.50557	4.50116	4.54045	4.57438	4.60025	4.61752	4.56551	4.51007	4.47517	4.43446	4.38498	4.36133	4.36732	4.34168	4.31098	4.3297	4.33923	4.35397	4.37898	4.3949	4.4248	4.44889	4.47748	4.46331	4.43225	4.44591	4.45361	4.4755	4.49984	4.52992	4.58585	4.64046	4.69277	4.75014	4.80893	4.8716	4.92493	4.97942	5.0326	5.05072	5.0352	4.98481	4.99301	5.02158	5.07224	5.17153	5.33472	5.44718	5.54814	5.65402	5.74206	5.8577	5.96931	6.07191	6.12383	6.14874	6.13689	6.17229	6.26431	6.36988	6.5055	6.65209	6.83015	7.04235	7.22328	7.42325	7.66036	7.99713	8.39847	8.6254	9.02813	9.41516	9.82065	10.3126	10.871	11.5334	12.2493	13.1308	14.1152	15.3869	16.8109	18.563	20.6813	22.704	25.603	29.0652	33.4023	39.9134	48.5525	57.8464	74.3777	90.8419	112.263	135.345	154.888	171.821	172.813	161.653	133.477	105.866	80.0774	68.1805	55.5154	44.176	35.7668	30.5885	27.5573	25.7869	21.1406	18.5733	16.6295	15.5656	14.2702	13.1779	12.2101	11.3703	10.7095	10.1624	9.60832	9.13543	8.73727	8.41591	8.13311	7.89685	7.66593	7.46906	7.29018	7.12758	6.97667	6.81094	6.65965	6.51212	6.3703	6.22814	6.09459	5.94224	5.86735	5.76939	5.67634	5.58382	5.57641	5.5023	5.41793	5.34366	5.27896	5.16489	5.08285	4.98728	4.90891	4.86562	4.85065	4.84669	4.84243	4.8643	4.88382	4.9175	4.93975	4.95328	4.9483	4.9162	4.87882	4.78583	4.65414	4.52922	4.3976	4.27991	4.17026	4.08321	3.99959	3.97537	4.00753	4.03085	4.079	4.13991	4.19673	4.27815	4.30042	4.34055	4.37193	4.38589	4.37414	4.37018	4.36639	4.35683	4.34666	4.35156	4.32876	4.2984	4.29448	4.26918	4.24352	4.23979	4.25807	4.31318	4.3272	4.30764	4.27708	4.19717	4.10103	4.00615	3.92269	3.93002	3.97326	4.06014	4.11569	4.04368	4.0547	4.08042	4.08841	4.10618	4.11644	4.14374	4.17945	4.17642	4.15845	4.15705	4.1519	4.10825	4.05297	3.97739	3.91625	3.8503	3.80421	3.76301	3.76572	3.78884	3.81538	3.8457	3.88151	3.95594	4.01286	4.09935	4.1222	4.10434	4.05029	3.9692	3.89442	3.82408	3.75981	3.69148	3.65031	3.69116	3.69616	3.71247	3.72122	3.74372	3.76147	3.78865	3.81258	3.82575	3.86914	3.89615	3.92462	3.95192	3.97359	4.00268	3.99449	3.97726	3.9514	3.91493	3.85177	3.79208	3.71894	3.64997	3.57005	3.5002	3.42485	3.30448	3.31362	3.40507	3.5118	3.60232	3.72215	3.84496	3.91072	3.94853	3.98108	4.00194	3.95557	3.91415	3.8629	3.82211	3.79634	3.77132	3.80456	3.81967	3.83315	3.84451	3.88154	3.92838	3.95944	3.98102	4.00137	3.99607	4.00637	4.00211	4.00986	4.00793	4.01564	4.01794	3.98093	3.96664	3.95074	3.95257	3.97116	3.9963	4.02313	4.05001	4.07729	4.07126	4.07401	4.03961	4.00819	3.95204	3.92755	3.91822	3.89434	3.85248	3.83313	3.80135	3.76704	3.7574	3.74793	3.72008	3.69949	3.63504	3.56457	3.46893	3.4022	3.38923	3.39817	3.41367	3.42329	3.44881	3.50053	3.54117	3.55635	3.58953	3.61588	3.63329	3.67483	3.69885	3.72526	3.73623	3.74945	3.75833	3.79778	3.84638	3.90664	3.92514	3.89667	3.90484	3.92739	3.96949	4.00717	4.05204	4.06715	4.05995	3.9922	3.89463	3.8346	3.72021	3.63842	3.60388	3.58391	3.55545	3.57071	3.60753	3.64926	3.70057	3.75829	3.81554	3.86526	3.92417	3.97886	4.01106	3.98618	3.95184	3.92153	3.90041	3.88689	3.86726	3.81726	3.77491	3.73474	3.70433	3.67666	3.6742	3.71601	3.74201	3.78627	3.83912	3.91179	4.00141	4.09505	4.13596	4.0739	3.96719	3.83822	3.75063	3.66617	3.63294	2.73966	3.8911	4.10907	4.08941	4.09163	4.1063	4.06971	4.07262	4.03817	4.02895	4.02925	4.04215	4.07153	4.09523	4.1203	4.16232	4.18841	4.1968	4.20314	4.196	4.18504	4.17772	4.1717	4.16979	4.16747	4.16503	4.12831	4.1062	4.07639	4.07423	4.06097	4.06512	4.06256	4.0654	4.06817	4.07234	4.05791	4.04653	4.03089	4.01295	3.99566	3.96421	3.93442	3.89846	3.85218	3.81944	3.80953	3.83223	3.868	3.88481	3.87784	3.87763	3.87402	3.87699	3.87623	3.8827	3.88625	3.88681	3.85143	3.80761	3.77925	3.77555	3.85473	3.90745	3.94861	3.95486	3.96073	3.96359	3.90843	3.79543	3.71055	3.66206	3.51955	3.5322	3.54642	3.62485	3.69132	3.76527	3.84142	3.91436	3.94399	3.94256	3.94136	3.92856	3.9295	3.91398	3.90371	3.90666	3.94174	3.93935	3.94789	3.99496	4.03454	4.06627	4.09182	4.09859	4.06411	4.0338	4.00283	3.97395	3.94625	3.91911	3.89497	3.88602	3.86864	3.82493	3.81913	3.81345	3.80273	3.78929	3.77627	3.7839	3.78506	3.79015	3.8054	3.84788	3.85833	3.88188	3.90012	3.92732	3.94826	3.96241	3.98115	3.99056	4.00565	4.02859	4.03365	4.0277	3.99616	3.95864	3.9348	3.91629	3.89098	3.87302	3.85256	3.83654	3.81997	3.7833	3.76081	3.76442	3.77639	3.77556	3.77504	3.76117	3.78959	3.81513	3.90425	3.98718	4.04613	4.10675	4.16838	4.23026	4.26964	4.23083	4.16177	4.09266	4.03461	3.96525	3.92802	3.9127	3.9011	3.89046	3.85524	3.86942	3.89418	3.92106	4.00157	4.08011	4.14056	4.17919	4.22314	4.2546	4.24768	4.25746	4.23005	4.21721	4.20699	4.21815	4.2072	4.18755	4.18534	4.16794	4.10118	4.03159	3.96131	3.88125	3.82177	3.77432	3.70218	3.59146	3.60797	3.67659	3.75963	3.85164	3.91589	3.96872	4.01667	4.04856	4.04924	4.05343	4.04155	4.03005	4.05017	4.05206	4.0569	4.0618	4.04726	4.05893	4.06881	4.09537	4.12673	4.16431	4.21211	4.20806	4.17953	4.10987	4.02131	3.937	3.84644	3.92463	4.04846
-20	20	4.54534	4.48896	4.42414	4.34268	4.2767	4.26677	4.27742	4.2438	4.23846	4.24193	4.20742	4.19669	4.15097	4.11348	4.07057	4.03419	3.99601	3.96489	3.9321	3.90324	3.87345	3.84958	3.82357	3.82329	3.82178	3.83868	3.88992	3.90597	3.97699	4.03765	4.09192	4.14069	4.19165	4.20709	4.17363	4.14257	4.11044	4.06492	4.03486	4.00235	3.97788	3.96422	3.97791	4.00202	4.04861	4.03513	3.97297	3.9128	3.85991	3.8194	3.78141	3.78888	3.78875	3.79923	3.8077	3.93153	3.98172	4.0476	4.15408	4.20281	4.14342	4.13834	4.13207	4.14134	4.17116	4.20544	4.25042	4.26336	4.20383	4.15052	4.09733	4.02746	3.99253	3.96389	3.95082	3.94788	3.94507	3.94798	3.95551	3.95602	3.94564	3.96729	3.97231	3.96772	3.95089	3.95058	3.92725	3.91659	3.91681	3.92013	3.9284	3.94199	3.99032	3.98457	3.98233	3.9797	3.98128	3.98166	3.98571	3.98875	3.99642	4.0009	4.00822	3.9742	3.94375	3.89902	3.89284	3.88379	3.88461	3.91438	3.92686	3.94804	3.96919	3.99112	4.00898	4.02977	4.04415	4.06333	4.07365	4.09487	4.11132	4.11885	4.10732	4.10056	4.07594	4.04326	4.02035	3.99254	3.96308	3.94074	3.8809	3.87532	3.87118	3.86478	3.86597	3.85714	3.82204	3.82284	3.83672	3.85456	3.98229	4.03519	4.10409	4.16402	4.21172	4.2338	4.24466	4.26224	4.20793	4.17445	4.07104	3.97357	3.88602	3.82115	3.7527	3.66976	3.74765	3.85652	3.97198	4.07252	4.0517	4.02783	4.01246	4.02332	4.05478	4.09035	4.12497	4.16778	4.2133	4.2523	4.26061	4.24455	4.23837	4.21533	4.19818	4.17202	4.14355	4.13949	4.10584	4.0862	4.07655	4.10947	4.13579	4.18865	4.23538	4.22438	4.21089	4.28722	4.26524	4.23863	4.20473	4.16213	4.14546	4.12534	4.09224	4.06828	4.03943	4.01832	4.02061	4.02286	4.04065	4.04819	4.10343	4.1668	4.23627	4.29208	4.34849	4.40635	4.46418	4.53246	4.55337	4.60749	4.59503	4.54905	4.49256	4.40059	4.32112	4.25828	4.22419	4.18716	4.15879	4.1221	4.13386	4.13123	4.1424	4.12821	4.13969	4.1418	4.14444	4.14408	4.14034	4.14036	4.12186	4.1167	4.10499	4.09667	4.09602	4.02074	4.03849	4.05388	4.07941	4.10264	4.15738	4.20468	4.25527	4.29848	4.3408	4.38714	4.31547	4.19113	4.08638	3.99851	3.91201	3.84009	3.75733	3.74682	3.76654	3.81373	3.89316	3.99616	4.11714	4.16535	4.21997	4.19749	4.14509	4.09409	4.04237	3.99017	3.94273	3.89296	3.8494	3.80728	3.78464	3.73351	3.77735	3.81309	3.884	3.96647	4.05775	4.1546	4.17525	4.19792	4.21214	4.22377	4.20292	4.18843	4.1711	4.15679	4.1492	4.13169	4.10331	4.06494	4.03515	3.99599	3.96728	3.9306	3.91023	3.87623	3.8403	3.78746	3.75338	3.69276	3.62123	3.57258	3.54632	3.54525	3.53342	3.54859	3.58037	3.62552	3.66071	3.70899	3.74318	3.78792	3.82389	3.8384	3.84724	3.86052	3.88379	3.89403	3.92917	3.94904	3.97506	3.99005	3.97903	3.98099	3.92645	3.84974	3.76841	3.69763	3.63886	3.61274	3.62012	3.6676	3.7062	3.73897	3.76339	3.78781	3.81998	3.84863	3.83266	3.83106	3.82406	3.82471	3.82511	3.82923	3.80185	3.71483	3.67045	3.66107	3.67772	3.74023	3.77726	3.80234	3.84233	3.88525	3.94529	3.96391	3.96396	3.96331	3.96349	3.94929	3.97887	4.00641	3.86041	3.70539	3.57322	3.43723	3.33246	3.33189	3.3547	3.37902	3.42272	3.47651	3.52856	3.59411	3.6594	3.71741	3.78325	3.81314	3.85649	3.898	3.93315	3.89888	3.87644	3.86588	3.88311	3.89993	3.92851	4.05465	4.10091	4.12284	4.13761	4.14585	4.15789	4.16346	4.17023	4.17017	4.1719	4.1439	4.17657	4.18973	4.19304	4.19757	4.20169	4.183	4.15368	4.1269	4.14227	4.14457	4.15888	4.21418	4.2497	4.19099	4.13623	4.07477	4.03319	4.00638	3.95981	3.95549	4.01936	4.06267	4.12406	4.17278	4.23614	4.24772	4.22825	4.24258	4.42835	4.41904	4.45209	4.50445	4.57681	4.6295	4.66335	4.69042	4.71529	4.74495	4.74359	4.73378	4.72547	4.7116	4.7009	4.67473	4.66877	4.65705	4.65471	4.65157	4.647	4.64767	4.64843	4.65409	4.66722	4.72002	4.72832	4.72723	4.74791	4.80612	4.92878	5.09738	5.26156	5.45683	5.61951	5.78826	5.95549	6.09672	6.36783	6.46484	6.55593	6.61792	6.66234	6.7795	7.01524	7.30898	7.62542	7.99714	8.55337	9.18603	9.93727	10.8494	11.8938	13.1134	14.6016	16.2694	18.0185	20.0321	22.7201	25.8912	29.4238	34.2362	42.6204	51.6602	66.3506	78.2305	95.5793	114.281	122.504	118.116	110.136	93.5388	80.0529	57.6046	48.5908	35.8044	32.3406	27.6718	23.238	20.6543	17.7951	16.0319	14.8152	13.8945	13.2371	12.5863	10.5277	9.98514	9.45888	8.97192	8.43399	7.90467	7.42109	6.99916	6.64573	6.352	6.13911	5.89721	5.70173	5.56318	5.42985	5.45032	5.49256	5.5556	5.63233	5.71741	5.7395	5.71925	5.69162	5.66778	5.62969	5.5281	5.4361	5.35219	5.24315	5.11959	4.98194	4.78247	4.61519	4.44718	4.25587	4.21994	4.20054	4.20728	4.21331	4.24004	4.27262	4.29786	4.26436	4.23339	4.19544	4.14357	4.10682	4.07864	4.04317	4.04093	4.09295	4.12241	4.16191	4.20459	4.24887	4.29752	4.32015	4.35603	4.36264	4.34454	4.3261	4.29506	4.2646	4.22194	4.18267	4.12561	4.10997	4.09524	4.08095	4.07683	4.0628	4.05741	4.09695	4.11916	4.13909	4.14575	4.05037	3.94258	3.7751	3.75879	3.80155	3.8913	3.9273	4.00146	4.09641	4.16496	4.10009	4.04165	3.9808	3.83023	3.82505	3.83084	3.77815	3.72414	3.70496	3.68453	3.66399	3.67576	3.70433	3.71977	3.7279	3.73345	3.76338	3.78312	3.80801	3.80275	3.76846	3.73845	3.70747	3.68279	3.65038	3.63281	3.69735	3.69713	3.69326	3.68281	3.68914	3.70695	3.7336	3.74496	3.77777	3.84629	3.92081	4.00839	4.08395	4.125	3.99936	3.97775	4.07084	4.09565	4.01218	3.77665	3.69462	3.66987	3.61117	3.54593	3.47693	3.43924	3.42609	3.42375	3.43269	3.43719	3.49695	3.56457	3.63551	3.71929	3.79584	3.88349	3.91564	3.93949	3.93711	3.91577	3.88617	3.91892	3.92191	3.93461	3.95195	3.96517	3.9851	3.95942	3.9134	3.85489	3.8084	3.73279	3.69087	3.63471	3.58549	3.55481	3.54945	3.50019	3.47529	3.47975	3.514	3.56631	3.57439	3.64995	3.786	3.79673	3.80123	3.81194	3.77629	3.76626	3.70585	3.70842	3.6814	3.64329	3.59844	3.75063	3.77156	3.78965	3.83084	3.84297	3.85813	3.86123	3.86734	3.84747	3.84681	3.83257	3.80751	3.82243	3.81436	3.79079	3.77325	3.75923	3.74157	3.72711	3.70655	3.71215	3.70087	3.71095	3.7303	3.75691	3.78275	3.76338	3.68339	3.62732	3.58748	3.55499	3.53085	3.52153	3.52843	3.56968	3.58879	3.60932	3.65288	3.69653	3.72067	3.70249	3.67511	3.66952	3.6609	3.64451	3.63005	3.61594	3.59742	3.58289	3.54698	3.53462	3.51308	3.51354	3.51798	3.52325	3.533	3.54404	3.55352	3.56117	3.57372	3.58392	3.59535	3.60754	3.61886	3.62779	3.63935	3.64707	3.65947	3.66841	3.68162	3.67892	3.68862	3.70145	3.71397	3.72936	3.74297	3.75797	3.77163	3.76496	3.78803	3.80885	3.83282	3.85537	3.87985	3.89603	3.90965	3.92509	3.93848	3.92606	3.90773	3.89382	3.8818	3.88849	3.89394	3.88898	3.8667	3.86861	3.8604	3.85723	3.82794	3.85878	3.89217	3.94972	3.90447	3.8541	3.79921	3.70289	3.67867	3.66514	3.6518	3.64351	3.64171	3.63892	3.72492	3.76109	3.80965	3.84493	3.80947	3.76847	3.69356	3.75053	3.72775	3.70032	3.6913	3.70139	3.72417	3.75932	3.82104	3.83533	3.86698	3.93642	4.00691	4.08384	4.14043	4.19666	4.18167	4.10698	4.07956	4.03717	4.00409	4.03013	4.03622	4.05491	4.06175	4.01051	3.9838	3.93914	3.92598	3.92177	3.92791	4.02168	4.07495	4.12488	4.1589	4.19872	4.28979	4.2464	4.19243	4.13564	4.05713	3.99328	3.92969	3.86959	3.81753	3.76449	3.7198	3.65049	3.63709	3.64377	3.63631	3.61629	3.60048	3.59406	3.58586	3.57255	3.58294	3.60532	3.62595	3.65856	3.68997	3.73234	3.76683	3.83974	3.8232	3.76739	3.7682	3.79382	3.80938	3.8199	3.86594	3.8864	3.90307	3.88889	3.86264	3.80698	3.83563	3.86059	3.89573	3.92449	3.95174	3.87919	3.87493	3.86275	3.86863	3.85835	3.85904	3.87206	3.88028	3.88807	3.89509	3.86489	3.80254	3.74032	3.68924	3.64901	3.5701	3.56754	3.58873	3.62799	3.67468	3.71018	3.75142	3.797	3.83878	3.87906	3.90796	3.90897	3.91183	3.90272	3.90083	3.88906	3.85631	3.81919	3.804	3.77435	3.74674	3.7189	3.69543	3.64196	3.59176	3.54382	3.4969	3.45798	3.41778	3.39301	3.35977	3.37337	3.40462	3.43323	3.52459	3.62512	3.7347	3.84968	3.99378	4.02831	3.97577	3.95391	3.95896	3.97006	4.00694	4.00462	4.01194	4.02748	4.01095	3.8911	3.85605	3.81824	3.79237	3.80302	3.79079	3.80662	3.81512	3.81719	3.8259	3.83057	3.83601	3.84153	3.84338	3.84871	3.84681	3.85145	3.84776	3.8515	3.8477	3.83659	3.83829	3.83954	3.84554	3.84167	3.86711	3.85627	3.8523	3.84136	3.81266	3.77719	3.74629	3.72516	3.70239	3.67953	3.70894	3.72477	3.74583	3.76282	3.78429	3.79493	3.81816	3.82081	3.76831	3.68253	3.61283	3.55514	3.52054	3.51101	3.49625	3.58764	3.6079	3.50493	3.35122	3.20769	3.03327	2.85801	2.66819	2.47443
0	-20	3.50637	3.67914	3.65159	3.64851	3.65073	3.64828	3.73137	3.77315	3.81261	3.8521	3.89513	3.91756	3.97792	4.03099	4.07166	4.12999	4.15101	4.17158	4.17121	4.20025	4.1429	4.05376	3.97535	3.9074	3.799	3.80442	3.84831	3.91664	3.98624	4.06164	4.12057	4.1385	4.15639	4.15968	4.13406	4.11729	4.10022	4.07622	4.05365	4.03201	4.00667	3.9846	3.96058	3.93721	3.89192	3.85606	3.81585	3.78035	3.74731	3.70026	3.6862	3.6791	3.67216	3.71619	3.74147	3.76341	3.7815	3.80691	3.84395	3.86358	3.88741	3.9059	3.9205	3.93735	3.93659	3.91871	3.90498	3.86824	3.84831	3.82396	3.75345	3.74621	3.74213	3.7422	3.74183	3.76673	3.78759	3.80269	3.81709	3.80676	3.76953	3.76416	3.77274	3.78228	3.835	3.87718	3.90836	3.94629	3.98795	4.02626	4.07723	4.13977	4.13999	4.13666	4.13048	4.1219	4.07865	4.04882	4.02235	3.99531	3.96241	3.93174	3.89837	3.87186	3.8312	3.79825	3.76045	3.72525	3.68618	3.67064	3.65567	3.64042	3.63065	3.62434	3.62848	3.64554	3.69693	3.76856	3.84061	3.91613	4.01302	4.08076	4.13985	4.18764	4.20053	4.1776	4.14835	4.10844	4.05055	3.994	3.91413	3.81739	3.72437	3.64171	3.55215	3.51841	3.5012	3.48962	3.39738	3.30126	3.27619	3.28222	3.26996	3.33649	3.42177	3.50488	3.60321	3.7087	3.80345	3.87597	3.88944	3.9236	3.9111	3.891	3.8623	3.84203	3.84094	3.82746	3.8189	3.80853	3.79958	3.76998	3.77987	3.78886	3.80039	3.83517	3.8646	3.90502	3.93357	3.96563	4.00147	4.0325	4.04452	4.05343	4.04365	4.03334	4.02395	4.01491	4.00599	3.9931	3.98443	3.96691	3.94554	3.93561	3.9299	3.92265	3.92234	3.92145	3.91719	3.96066	3.95675	3.94536	3.92501	3.91584	3.90149	3.89514	3.87778	3.84863	3.84879	3.85199	3.85761	3.86814	3.87839	3.89123	3.90666	3.92162	3.94266	3.96891	3.98663	4.01363	4.03658	4.06486	4.11436	4.13636	4.15645	4.17392	4.18841	4.18346	4.14971	4.11307	4.07896	4.03763	3.98882	3.94788	3.93624	3.91143	3.8951	3.87118	3.86192	3.85373	3.84636	3.84428	3.84768	3.84715	3.85443	3.85866	3.86689	3.87382	3.87961	3.88754	3.91015	3.94487	3.97359	4.00016	4.03335	4.06079	4.0632	4.06878	4.06936	4.07116	4.06915	4.06557	4.06154	4.05216	4.03851	4.02297	4.00864	3.98819	3.93407	3.87272	3.83656	3.79591	3.75264	3.71093	3.68788	3.67649	3.71446	3.7984	3.91152	3.93399	3.93391	3.89777	3.85366	3.81957	3.79889	3.77864	3.76219	3.74871	3.73436	3.71571	3.69436	3.67802	3.66994	3.68997	3.70938	3.72947	3.72643	3.69182	3.66887	3.69839	3.77615	3.93736	3.80457	3.63838	3.5025	3.42376	3.38534	3.39499	3.45195	3.58874	3.71903	3.67145	3.6328	3.61913	3.62217	3.66106	3.69454	3.72108	3.74164	3.7526	3.74146	3.73121	3.72448	3.67829	3.71805	3.72596	3.72836	3.7356	3.7409	3.74331	3.75031	3.74674	3.72092	3.73053	3.74232	3.75619	3.77015	3.78676	3.80256	3.82044	3.83971	3.8524	3.83189	3.81191	3.7883	3.76831	3.74504	3.72602	3.69746	3.6631	3.65233	3.64129	3.63265	3.605	3.59571	3.56938	3.55243	3.53893	3.52816	3.52368	3.52358	3.52744	3.54713	3.56647	3.59614	3.62883	3.64865	3.64008	3.61837	3.61071	3.60992	3.63009	3.6517	3.6694	3.68682	3.70525	3.72815	3.73898	3.78059	3.8208	3.82471	3.86518	3.89966	3.91128	3.83887	3.76725	3.6791	3.59671	3.54318	3.49328	3.45181	3.53335	3.54434	3.57215	3.60325	3.64046	3.67757	3.72117	3.7617	3.79166	3.80551	3.82768	3.85417	3.87495	3.87866	3.87856	3.85292	3.86712	3.89503	3.92978	3.95947	3.99804	4.03932	4.04236	4.02566	3.98656	3.94288	3.89788	3.85551	3.81032	3.76763	3.71051	3.67899	3.67019	3.64413	3.5689	3.57881	3.67723	3.79973	3.88068	3.91721	3.93034	3.91849	3.86879	3.8189	3.78725	3.80247	3.82843	3.86182	3.88072	3.89619	3.92259	3.95441	3.98417	4.0195	4.04457	4.06099	4.13509	4.19088	4.24345	4.21058	4.18637	4.17507	4.16611	4.21717	4.27582	4.33214	4.4935	4.68481	4.93265	5.08965	5.11575	4.88341	4.87652	4.83942	4.79202	4.73965	4.65929	4.60617	4.60563	4.78771	4.8739	4.9862	5.02095	5.26674	5.47402	5.69961	5.91115	6.17074	6.39581	6.55649	6.73246	6.89571	7.12627	7.35234	7.60812	7.96573	8.33671	8.88272	9.53953	10.3118	11.1465	12.1005	13.1975	14.457	15.9536	17.8645	20.5523	23.2423	26.7856	36.1446	42.0743	52.199	63.6418	80.1232	95.0395	102.006	99.4329	98.0647	86.5904	65.6602	54.5514	45.3666	37.0224	28.0203	23.9582	20.7903	17.3382	15.818	14.5709	13.319	12.3099	11.396	10.5592	9.7918	9.10997	8.56199	8.04655	7.43737	7.02228	6.66882	6.33926	6.06472	5.86871	5.70616	5.56081	5.4368	5.32521	5.2129	5.12996	5.06795	5.02084	4.95854	4.90159	4.84725	4.78741	4.73085	4.67628	4.60339	4.56135	4.51405	4.46598	4.41421	4.37303	4.32638	4.28977	4.23128	4.18968	4.14662	4.11209	4.09152	4.05586	4.0234	3.99619	3.97024	3.94949	3.92991	3.91744	3.8793	3.85001	3.81735	3.79509	3.78362	3.78403	3.78211	3.79509	3.79471	3.82168	3.84853	3.91995	3.96281	4.01015	4.05587	4.05794	4.07368	4.0964	4.08843	4.08944	4.05271	3.98606	3.87969	3.82564	3.78807	3.79353	3.78164	3.7673	3.77183	3.82624	3.85015	3.8861	3.92748	3.96389	3.98075	3.96902	3.91504	3.89224	3.86644	3.84949	3.82619	3.81242	3.79934	3.81321	3.81195	3.80848	3.80587	3.80276	3.80551	3.79426	3.79405	3.79593	3.77612	3.75455	3.72918	3.70818	3.67812	3.64045	3.59708	3.53835	3.47839	3.43983	3.38056	3.31116	3.30392	3.29712	3.2963	3.37885	3.42335	3.4736	3.52071	3.56409	3.60862	3.69992	3.72737	3.73723	3.73998	3.74478	3.77195	3.76252	3.75635	3.74385	3.72871	3.71287	3.69283	3.6727	3.64986	3.62683	3.60318	3.56784	3.55221	3.52373	3.50135	3.47704	3.45798	3.4371	3.41846	3.39624	3.37804	3.37121	3.36851	3.36831	3.37355	3.37644	3.38677	3.39501	3.41015	3.42515	3.42545	3.42671	3.42804	3.43124	3.43367	3.43884	3.44468	3.45357	3.46391	3.47502	3.48985	3.5127	3.51463	3.50496	3.46123	3.46681	3.47437	3.48363	3.53117	3.56431	3.56919	3.56638	3.5701	3.55923	3.51014	3.53972	3.57222	3.6056	3.64132	3.67866	3.71506	3.76938	3.77701	3.76802	3.7405	3.71352	3.6838	3.65949	3.63359	3.61554	3.59678	3.6048	3.61129	3.63332	3.65894	3.72182	3.74922	3.75347	3.71785	3.67538	3.62597	3.57948	3.50037	3.49155	3.47849	3.47681	3.52285	3.54128	3.58142	3.6131	3.62471	3.66026	3.67327	3.6747	3.68328	3.6731	3.65059	3.5687	3.52099	3.47452	3.42882	3.3811	3.33851	3.30077	3.2664	3.24029	3.21409	3.20527	3.1937	3.2196	3.22376	3.27513	3.30117	3.37537	3.45551	3.55046	3.6392	3.72154	3.75752	3.78193	3.79876	3.81505	3.82392	3.83451	3.82903	3.80713	3.78896	3.76091	3.73731	3.70055	3.6662	3.62779	3.57817	3.51565	3.44968	3.40553	3.35436	3.30336	3.26005	3.21788	3.16464	3.1845	3.20336	3.22939	3.26196	3.2924	3.33688	3.38087	3.44145	3.49064	3.53164	3.58305	3.59357	3.57634	3.55503	3.52825	3.50641	3.39564	3.34833	3.29316	3.24176	3.2135	3.15191	3.19199	3.23636	3.35847	3.41258	3.45019	3.48891	3.52612	3.56784	3.58415	3.63094	3.67407	3.70077	3.72586	3.75401	3.77557	3.79421	3.81487	3.82712	3.83672	3.84545	3.85203	3.85461	3.8198	3.79619	3.77656	3.74533	3.71899	3.69827	3.69158	3.7032	3.71459	3.72185	3.72621	3.68475	3.64927	3.6282	3.61294	3.60012	3.6488	3.67947	3.70052	3.7283	3.75451	3.74425	3.71894	3.69455	3.67275	3.65194	3.63469	3.61108	3.60217	3.61613	3.61575	3.62613	3.58927	3.5893	3.56421	3.54834	3.52924	3.51783	3.5053	3.50598	3.48365	3.53518	3.59145	3.6531	3.72054	3.75236	3.72406	3.74462	3.67312	3.57607	3.51836	3.51223	3.50952	3.56862	3.59883	3.64394	3.66908	3.67176	3.67799	3.68497	3.69094	3.70671	3.71957	3.72909	3.72544	3.72328	3.72002	3.71794	3.71504	3.6884	3.69642	3.70712	3.71296	3.72057	3.72731	3.73474	3.74183	3.75043	3.75297	3.75594	3.75875	3.74901	3.72669	3.7067	3.68316	3.66151	3.63712	3.61195	3.58557	3.56176	3.54033	3.5231	3.49311	3.48401	3.48398	3.48184	3.48314	3.47932	3.484	3.47713	3.47202	3.49844	3.50969	3.51937	3.54499	3.54708	3.53621	3.5096	3.48267	3.45582	3.42939	3.40371	3.37901	3.35621	3.33541	3.31557	3.29813	3.28117	3.26658	3.25229	3.23995	3.22851	3.21737	3.20896	3.19992	3.19563	3.18948	3.17916	3.1854	3.18685	3.15373	3.17709	3.20716	3.23746	3.26862	3.30359	3.34119	3.38177	3.42482	3.46496	3.50877	3.55179	3.58839	3.62869	3.66668	3.70172	3.73937	3.76552	3.78661	3.80236	3.82412	3.82012	3.81458	3.74478	3.69336	3.66508	3.63282	3.60616	3.58002	3.55465	3.52189	3.48934	3.4555	3.42428	3.39021	3.35252	3.3264	3.28464	3.26116	3.23477	3.22515	3.228	3.25997	3.28748	3.32122	3.3509	3.38362	3.41889	3.44865	3.48741	3.52736	3.56773	3.60738	3.64567	3.68474	3.72117	3.7441	3.75979	3.77696	3.74384	3.73821	3.74108	3.72456	3.722	3.69644	3.67907	3.64387	3.60664	3.57005	3.53362	3.49265	3.44898	3.39321
0	0	4.48691	4.35725	4.20271	3.96502	3.9811	4.00736	4.04174	4.07849	4.11984	4.16017	4.19814	4.20049	4.20759	4.19266	4.16955	4.12549	4.09728	4.06483	4.05826	4.00581	3.96617	3.8952	3.87462	3.85123	3.84421	3.86926	3.93354	4.0113	4.09887	4.16671	4.23562	4.27264	4.32123	4.41489	4.44085	4.43189	4.40816	4.32476	4.24211	4.15336	4.08824	4.02915	3.9793	3.92973	3.88324	3.86587	3.87226	3.87236	3.91011	3.92332	3.94282	3.97539	4.01937	4.02966	4.0426	4.0284	3.99405	3.95628	3.85374	3.82858	3.83391	3.84456	3.8697	3.83059	3.86905	3.91618	3.93258	3.95517	3.99164	4.03848	4.08379	4.13721	4.17372	4.21378	4.24097	4.24452	4.23785	4.21837	4.18823	4.13652	4.09334	4.04707	4.00898	3.95391	3.92495	3.90178	3.87975	3.89436	3.90521	3.93851	3.95704	3.98513	3.95715	3.91109	3.87239	3.84655	3.86736	3.93587	3.97192	3.9501	3.90803	3.88141	3.84009	3.77362	3.74797	3.73844	3.73352	3.74013	3.74417	3.77523	3.79317	3.81682	3.81774	3.81149	3.82285	3.79482	3.75447	3.67699	3.58233	3.51271	3.38991	3.41077	3.44301	3.48861	3.57583	3.64824	3.72539	3.79744	3.87234	3.9402	4.01109	4.05504	4.07898	4.07808	4.1196	4.11455	4.12013	4.11891	4.13056	4.13911	4.14733	4.16647	4.1982	4.21974	4.25814	4.25354	4.23459	4.21589	4.17559	4.13832	4.10617	4.088	4.06943	4.03886	4.01449	3.97977	3.92451	3.85645	3.79807	3.79655	3.79394	3.81187	3.83119	3.82577	3.87306	3.91061	3.98146	4.06276	4.14471	4.10858	4.10635	4.13617	4.14864	4.05126	3.83043	3.82688	4.02116	4.1421	4.25044	4.27938	4.26837	4.27982	4.28482	4.29587	4.24943	4.20774	4.11058	4.13979	4.18312	4.25671	4.32744	4.40326	4.40392	4.3939	4.36421	4.36183	4.3681	4.37575	4.35368	4.30382	4.23874	4.17995	4.13832	4.07693	4.04203	4.00977	3.99449	3.99139	3.98833	3.98674	3.99111	3.98327	4.00037	4.01906	4.05297	4.08585	4.11015	4.11137	4.14178	4.16178	4.1784	4.23584	4.24938	4.25389	4.25978	4.27632	4.2353	4.20223	4.16694	4.12152	4.07893	3.97404	3.91815	3.84291	3.786	3.75644	3.69232	3.64136	3.6756	3.73817	3.82282	3.932	4.01278	4.03574	4.08227	4.12926	4.15465	4.17318	4.16476	4.12643	4.07556	4.0924	4.1365	4.16857	4.20913	4.24973	4.28202	4.32277	4.34814	4.34579	4.30613	4.24993	4.15905	3.98253	3.96027	3.94964	3.96494	3.97991	4.02483	3.95572	3.90902	3.87303	3.84191	3.81828	3.80768	3.79657	3.79258	3.81944	3.83474	3.84934	3.86427	3.88796	3.90464	3.9187	3.92851	3.94276	3.90709	3.9101	3.9002	3.90117	3.88806	3.8871	3.88456	3.88367	3.88447	3.89456	3.89378	3.89013	3.89008	3.88646	3.84992	3.81196	3.76971	3.7436	3.72307	3.69118	3.68798	3.70778	3.73013	3.7552	3.77172	3.7685	3.76563	3.76962	3.8248	3.85864	3.83263	3.86703	3.90059	3.93863	3.98045	4.02061	4.01837	3.9799	3.97352	3.9709	3.98752	3.96691	3.9628	3.96005	3.94954	3.95271	3.98862	4.03217	4.0631	4.02712	3.95877	3.91018	3.83142	3.83057	3.82795	3.81262	3.80429	3.78965	3.80544	3.79419	3.78106	3.78116	3.78144	3.76344	3.78526	3.8045	3.84097	3.86054	3.925	3.9345	3.96513	3.99688	4.01827	4.02833	4.02265	4.0472	4.07012	4.07447	4.10038	4.07927	4.06522	4.07057	4.03751	4.00005	3.97458	3.95141	3.91571	3.87284	3.8726	3.86709	3.89013	3.8975	3.93021	3.9688	4.00087	4.03337	4.02102	3.87576	3.68842	3.77118	3.9404	3.98955	4.00933	4.01528	4.03033	4.03074	4.03317	4.05711	4.03697	3.97606	3.86862	3.74553	3.67215	3.64303	3.62414	3.64432	3.68573	3.87122	4.02904	4.1799	4.3144	4.4368	4.48575	4.53113	4.52666	4.51989	4.5204	4.49554	4.45947	4.43322	4.36589	4.31335	4.26702	4.25412	4.22071	4.13316	4.07243	3.99038	3.89057	3.84887	3.8374	3.83823	3.86721	3.86762	3.928	4.00272	4.07717	4.16464	4.25748	4.32753	4.37562	4.42431	4.47099	4.51641	4.59466	4.66327	4.71262	4.77823	4.75321	4.728	4.69395	4.6545	4.6113	4.58045	4.54606	4.49995	4.49504	4.48905	4.50802	4.58828	4.66294	4.75187	4.86011	4.97989	5.10362	5.25093	5.38319	5.4982	5.62667	5.76493	5.89993	6.05101	6.20841	6.33871	6.49377	6.67606	6.88335	7.13127	7.54152	7.8952	8.32517	8.87838	9.51925	10.0821	10.8795	11.864	12.7465	13.8625	15.4556	17.3979	20.1419	23.2662	27.147	32.6285	39.6728	51.72	58.8776	74.0006	85.4954	98.9788	102.59	109.701	91.0191	72.0158	57.8735	48.7262	41.7474	34.1609	28.377	24.0202	21.121	18.0182	16.6239	14.0781	12.8649	11.5819	10.7885	10.06	9.53589	9.00616	8.6441	8.21644	7.823	7.5503	7.30506	7.08679	6.88986	6.72841	6.53836	6.36357	6.19148	6.01615	5.78556	5.5831	5.40549	5.25611	5.11861	5.02119	4.92738	4.84673	4.77937	4.78005	4.78391	4.79992	4.8263	4.85413	4.89459	4.94004	4.94737	4.9255	4.89011	4.84693	4.78764	4.70803	4.64156	4.57332	4.50416	4.39116	4.32901	4.27579	4.22455	4.22203	4.20002	4.23194	4.23255	4.23855	4.24029	4.24572	4.2491	4.25247	4.20193	4.09562	4.01975	3.97535	3.97794	4.01474	4.03984	4.0861	4.16188	4.22287	4.21795	4.21292	4.20979	4.20741	4.21542	4.20008	4.18541	4.16562	4.14966	4.12469	4.09009	4.07365	4.05137	4.02728	4.01342	3.99353	3.93838	3.9493	3.94177	3.92342	3.89576	3.86907	3.85927	3.87765	3.88534	3.89235	3.90815	3.91678	3.94257	4.001	3.96498	3.86042	3.72966	3.53939	3.47007	3.45165	3.43269	3.42423	3.41845	3.43399	3.45228	3.4679	3.49689	3.52153	3.54704	3.56074	3.60534	3.60427	3.60996	3.63008	3.64696	3.6684	3.69055	3.71376	3.69582	3.65614	3.61422	3.59582	3.56786	3.59747	3.68104	3.77065	3.87605	3.93531	3.97705	3.99138	4.00482	4.00174	3.99514	3.97673	3.91101	3.823	3.70133	3.60368	3.71491	3.79408	3.96435	3.9332	3.9226	3.92916	3.95365	3.97426	3.92681	3.89702	3.85655	3.82942	3.78255	3.74093	3.70502	3.69259	3.66906	3.64428	3.62753	3.61092	3.60016	3.57552	3.5651	3.58931	3.61125	3.64342	3.6983	3.70321	3.67227	3.65781	3.65432	3.67875	3.6611	3.68073	3.70211	3.72205	3.73433	3.73782	3.75303	3.79575	3.80416	3.77777	3.76697	3.73625	3.76021	3.76413	3.79049	3.82777	3.85451	3.85492	3.87278	3.79938	3.68456	3.58741	3.4476	3.37716	3.33309	3.29581	3.29132	3.29539	3.32922	3.32711	3.39148	3.56849	3.66872	3.74953	3.77744	3.70514	3.63357	3.555	3.38308	3.36857	3.39167	3.41785	3.45	3.47805	3.55865	3.58111	3.6058	3.6199	3.6172	3.64136	3.64847	3.61101	3.58971	3.54743	3.52006	3.52293	3.53086	3.54272	3.56251	3.58284	3.59186	3.61136	3.63188	3.66757	3.69825	3.69833	3.65883	3.62232	3.57106	3.55968	3.52139	3.50424	3.51793	3.54797	3.61114	3.6696	3.72429	3.78174	3.84081	3.85413	3.84706	3.81539	3.82179	3.73603	3.72493	3.70474	3.68996	3.67542	3.71552	3.74414	3.76128	3.77093	3.79338	3.76577	3.74392	3.70596	3.66783	3.61144	3.58711	3.56704	3.52375	3.506	3.47394	3.50426	3.56757	3.668	3.73205	3.79078	3.86056	3.93291	3.91238	3.8654	3.83312	3.76093	3.71926	3.67464	3.64656	3.61649	3.66586	3.68673	3.74565	3.75464	3.76653	3.77569	3.78492	3.79539	3.79471	3.80233	3.80044	3.80432	3.79076	3.77698	3.77411	3.74704	3.73216	3.76408	3.81286	3.85626	3.93669	3.9352	3.93982	3.96176	3.97143	3.99614	4.00687	4.04994	4.08068	4.10928	4.06448	4.03701	4.00016	3.96656	3.92993	3.89662	3.86197	3.81844	3.81154	3.75758	3.71232	3.67348	3.65024	3.64534	3.6363	3.63944	3.65556	3.65602	3.64656	3.64418	3.64094	3.65993	3.68285	3.72367	3.75624	3.88625	3.97515	3.99823	4.00307	3.99164	3.97553	3.9661	3.95809	3.96328	3.97454	3.98201	3.94885	3.93327	3.93465	3.93418	3.93885	3.92857	3.9259	3.89426	3.88008	3.85329	3.85177	3.85344	3.84524	3.84452	3.84138	3.81584	3.86575	3.89646	3.87994	3.8752	3.85281	3.82743	3.81187	3.80911	3.78866	3.75394	3.79932	3.83917	3.90556	3.9759	4.00374	4.01918	4.02987	4.06497	4.09843	4.10266	4.09971	4.10635	4.08888	4.04114	3.99643	3.94469	3.89929	3.87345	3.84327	3.84105	3.82472	3.83996	3.95769	4.02061	4.06418	4.07547	4.10442	4.13016	4.12918	4.09383	4.1083	4.09765	4.05668	3.96018	3.88474	3.84575	3.82991	3.80813	3.77086	3.82192	3.88174	3.94895	4.03174	4.1056	4.15709	4.14585	4.1137	4.04825	3.99854	3.94808	3.92863	3.9076	3.89278	3.86836	3.85879	3.88395	3.90131	3.92711	3.84784	3.77544	3.91605	3.95869	4.00278	4.04933	4.07579	4.0555	4.03591	3.82285	3.68697	3.60376	3.52123	3.41962	3.42907	3.46317	3.51371	3.56487	3.6296	3.7143	3.83181	3.94262	4.01458	4.0643	4.03772	3.95745	3.89615	3.85284	3.83822	3.80709	3.78364	3.73686	3.66137	3.66212	3.67145	3.68399	3.71086	3.73506	3.77503	3.80603	3.83891	3.86088	3.87199	3.86144	3.87124	3.86678	3.79086	3.74693	3.7053	3.66437	3.67047	3.7147	3.70577	3.72483	3.72921	3.73465	3.74368	3.75727	3.75859	3.76855	3.7914	3.81091	3.83606	3.84915	3.84416	3.85243	3.82363	3.76268	3.70396	3.67954	3.67907	3.70976	3.78335	3.76147
0	20	3.342	3.40264	3.49499	3.6526	3.75788	3.79086	3.82456	3.86188	3.8952	3.92765	3.96049	3.9911	4.02173	4.04437	4.03981	4.02196	3.98728	3.91583	3.89941	3.87894	3.8524	3.87111	3.91773	3.97982	4.03709	4.08608	4.11653	4.13547	4.10857	4.08466	4.05364	4.02121	3.98669	3.9491	3.91085	3.86939	3.83347	3.76963	3.76519	3.76957	3.772	3.79426	3.82957	3.8736	3.95015	4.02421	4.08202	4.15712	4.21845	4.27649	4.23739	4.17553	4.11749	4.05068	3.98221	3.9189	3.84896	3.78722	3.72238	3.66788	3.6061	3.56041	3.51237	3.56887	3.62321	3.68547	3.75701	3.83478	3.90991	3.9941	4.05984	4.13057	4.20081	4.27456	4.27088	4.18103	4.12837	4.06652	4.00308	3.93306	3.86722	3.80143	3.74096	3.68032	3.62499	3.60752	3.63267	3.63852	3.6696	3.70281	3.73464	3.77059	3.81258	3.84723	3.89119	3.92704	3.96994	4.00508	4.04325	4.04018	4.05768	4.03821	3.98813	3.85029	3.83203	3.76013	3.71789	3.74439	3.75517	3.82076	3.89356	3.90584	3.94238	4.00322	4.16304	4.12415	4.18033	4.20906	4.19336	4.17029	4.16102	3.99683	3.924	3.92253	3.8961	3.88655	3.89342	3.78114	3.76953	3.75939	3.82406	3.87893	3.93998	3.97503	3.98102	3.9571	3.92172	3.92368	3.92863	3.94003	3.96484	3.94944	3.91875	3.90946	3.90363	3.90256	3.92103	3.90407	3.8743	3.83548	3.80299	3.77548	3.76301	3.75414	3.75085	3.75273	3.78701	3.79833	3.82055	3.83875	3.87208	3.90826	3.95353	4.00109	4.04278	4.08201	4.09768	4.10914	4.12447	4.06241	4.03146	3.98939	3.94591	3.9044	3.85749	3.82008	3.76497	3.70239	3.68346	3.65999	3.64928	3.63314	3.65174	3.67236	3.68995	3.70989	3.73058	3.75059	3.78368	3.79889	3.82388	3.87724	3.87921	3.87419	3.86747	3.86123	3.8479	3.80103	3.77097	3.73517	3.71031	3.68098	3.65621	3.64666	3.62427	3.59511	3.62112	3.64298	3.7334	3.79438	3.85354	3.93153	4.00291	4.07109	4.00369	3.96516	3.98608	4.02396	4.09487	4.14253	4.20659	4.25605	4.30762	4.29678	4.24602	4.16934	4.10757	4.04293	3.97971	3.88437	3.87464	3.87197	3.97317	4.0307	4.09352	4.14609	4.14004	4.11693	4.1011	4.05695	4.058	4.05457	4.1374	4.15647	4.18087	4.18419	4.17892	4.16509	4.09761	4.02336	3.94575	3.86988	3.80029	3.72936	3.66753	3.61117	3.57555	3.57825	3.63973	3.70503	3.74849	3.76833	3.83484	3.89482	3.92876	3.96094	3.98312	4.01054	4.05308	4.09338	4.09646	4.10479	4.09014	4.03363	3.99434	3.93823	3.91767	3.89917	3.91302	3.90462	3.86437	3.84003	3.81182	3.77828	3.74704	3.77808	3.81614	3.83837	3.84927	3.89194	3.915	3.92919	3.86171	3.77817	3.70524	3.63415	3.56596	3.49844	3.4261	3.3817	3.33907	3.26698	3.28707	3.3553	3.42854	3.50273	3.57459	3.66969	3.75142	3.83666	3.95143	3.97237	3.99283	3.97807	3.96906	3.96951	4.04163	4.04433	4.02858	4.01505	3.99682	3.9804	3.96241	3.94538	3.92985	3.91405	3.90411	3.87933	3.85527	3.85762	3.85181	3.81937	3.79913	3.79281	3.79946	3.811	3.83236	3.85693	3.869	3.86933	3.89132	3.92153	3.91874	3.90552	3.89913	3.8827	3.87276	3.85452	3.83792	3.81149	3.78456	3.76966	3.76389	3.74341	3.72282	3.7034	3.68551	3.66948	3.65302	3.64195	3.63344	3.62794	3.62751	3.63057	3.63333	3.63305	3.66311	3.70666	3.7339	3.76933	3.82782	3.87018	3.92299	3.9378	3.91946	3.91179	3.99843	4.09343	4.27092	4.38825	4.48201	4.49418	4.41964	4.35774	4.23637	4.08241	3.93802	3.80056	3.7035	3.65093	3.65932	3.97643	3.89038	3.90897	3.91591	3.93048	3.94529	3.95826	3.97071	3.9827	3.9788	3.95472	3.93055	3.92978	3.91584	3.94165	3.96756	3.98809	4.00785	3.99954	3.97332	3.94457	3.91746	3.88571	3.86126	3.82317	3.80881	3.7876	3.74509	3.7743	3.80738	3.85356	3.98173	4.05377	4.13507	4.1685	4.20603	4.21123	4.21624	4.21884	4.2008	4.17938	4.18902	4.20311	4.22367	4.2497	4.24294	4.23423	4.22545	4.2254	4.2202	4.22784	4.25035	4.27066	4.28796	4.31162	4.33483	4.356	4.37546	4.42549	4.41934	4.40312	4.39826	4.38569	4.38403	4.38047	4.3858	4.3959	4.41289	4.44088	4.47482	4.52415	4.58121	4.65365	4.85979	5.01624	5.1834	5.37155	5.56414	5.77544	5.99314	6.23202	6.47784	6.74591	7.02942	7.30843	7.64514	8.20399	8.81378	9.21037	9.95882	10.6363	11.7298	12.8649	14.4546	16.3771	19.2421	22.0685	25.7951	30.0626	35.7906	43.1505	52.1599	61.7388	73.9868	91.8394	98.4016	101.94	98.3487	78.2395	63.3067	55.7213	38.3727	33.7944	29.6882	25.6106	22.2491	19.615	17.1974	15.054	13.2161	11.6932	10.4728	9.5443	8.75689	8.13645	7.67777	7.22856	7.02114	6.70921	6.4964	6.44186	6.3049	6.19293	6.0172	5.849	5.68504	5.51776	5.36418	5.26854	5.19825	5.13045	5.06599	5.01405	4.95633	4.91007	4.91024	4.86255	4.83177	4.81915	4.79714	4.74828	4.70388	4.65516	4.6044	4.55252	4.49744	4.44779	4.33326	4.27834	4.19752	4.12588	4.10901	4.09886	4.09342	4.14057	4.18319	4.23823	4.23085	4.1798	4.16836	4.15529	4.14821	4.11119	4.09213	4.05552	4.01891	3.99234	3.95349	3.92969	3.92282	3.9071	3.90751	3.89962	3.9175	3.93413	3.94344	3.95146	3.95885	3.96564	3.97168	3.97702	3.98145	3.98509	3.98519	3.98705	3.95022	3.91808	3.87631	3.76446	3.71632	3.67568	3.61723	3.57987	3.58792	3.61174	3.74054	3.80635	3.85971	3.90262	3.91795	3.927	3.95032	3.94492	3.85775	3.82088	3.74139	3.71774	3.70277	3.71236	3.75568	3.71942	3.69038	3.68834	3.70896	3.7237	3.76317	3.76357	3.73781	3.72042	3.71616	3.69208	3.6779	3.67113	3.65202	3.70004	3.68145	3.65798	3.5882	3.54464	3.46809	3.52689	3.5841	3.65909	3.73224	3.81116	3.87009	3.93362	3.97644	4.01257	4.01184	3.98775	3.97465	3.89747	3.81893	3.74358	3.70436	3.67097	3.63942	3.61984	3.60801	3.61314	3.63226	3.64517	3.64854	3.65799	3.64767	3.63532	3.6276	3.60079	3.5629	3.53763	3.51074	3.51281	3.51257	3.53676	3.58548	3.64159	3.72377	3.79541	3.78034	3.7682	3.75919	3.75037	3.74287	3.73496	3.72813	3.73209	3.72807	3.72185	3.64443	3.58195	3.52524	3.46871	3.43296	3.43635	3.44169	3.47749	3.5342	3.58862	3.61169	3.61809	3.63191	3.63313	3.62995	3.62545	3.60619	3.57792	3.54525	3.49897	3.45646	3.43803	3.41441	3.42529	3.46955	3.50234	3.55496	3.62886	3.69556	3.74761	3.73968	3.72894	3.71582	3.67032	3.64895	3.63359	3.61874	3.60976	3.59466	3.57351	3.5724	3.57352	3.57666	3.57989	3.6007	3.59156	3.57482	3.55006	3.51786	3.50375	3.47712	3.46462	3.45896	3.45748	3.48828	3.52161	3.5347	3.54013	3.54228	3.54694	3.54946	3.53331	3.52273	3.50998	3.5202	3.54127	3.54909	3.54744	3.54518	3.54342	3.54962	3.54722	3.54436	3.54102	3.53542	3.53236	3.52665	3.52038	3.50741	3.51422	3.50817	3.50359	3.49741	3.49147	3.47685	3.47113	3.47616	3.47053	3.46584	3.46295	3.46265	3.4724	3.4709	3.45972	3.45294	3.48405	3.51628	3.55394	3.59339	3.64085	3.67112	3.71586	3.75056	3.79384	3.84819	3.91198	3.96485	3.95838	3.95238	3.95953	3.9558	3.95017	3.95844	3.96522	3.91911	3.90361	3.87516	3.87879	3.86289	3.82803	3.80962	3.80987	3.82324	3.84042	3.89554	3.90338	3.87365	3.86769	3.83421	3.85134	3.85487	3.85325	3.86584	3.8661	3.86696	3.84531	3.83363	3.83376	3.79741	3.74749	3.69938	3.65176	3.65152	3.65659	3.6152	3.58337	3.56801	3.57079	3.60656	3.64445	3.62606	3.61059	3.59085	3.57518	3.55701	3.48695	3.43356	3.45011	3.45137	3.46721	3.44586	3.40896	3.44193	3.47903	3.51677	3.5636	3.6048	3.66647	3.71904	3.7681	3.78979	3.82214	3.86549	3.86416	3.83131	3.80255	3.79511	3.7756	3.74257	3.70336	3.6905	3.68628	3.69309	3.72437	3.74048	3.7549	3.70399	3.65981	3.61104	3.56432	3.52346	3.48634	3.42074	3.42837	3.48134	3.54553	3.59948	3.65904	3.71364	3.77615	3.83389	3.86448	3.87028	3.8794	3.8147	3.72164	3.6673	3.63206	3.61674	3.62783	3.64153	3.69179	3.74163	3.8002	3.8368	3.89637	3.89779	3.87289	3.83057	3.79542	3.74707	3.68267	3.66138	3.64239	3.6253	3.69343	3.68639	3.68133	3.68667	3.69379	3.69616	3.66655	3.6411	3.64519	3.65539	3.69075	3.74883	3.77548	3.75076	3.68626	3.63341	3.59023	3.55581	3.51272	3.53444	3.55584	3.68397	3.75361	3.77797	3.76661	3.77272	3.75636	3.71798	3.66268	3.67549	3.70497	3.7398	3.75809	3.78113	3.77966	3.7342	3.69991	3.68123	3.65948	3.66549	3.65591	3.67654	3.68289	3.71546	3.73888	3.73509	3.74115	3.70245	3.65865	3.62068	3.55464	3.51441	3.48996	3.45924	3.4364	3.41327	3.4081	3.50841	3.50576	3.4834	3.44571	3.47117	3.48987	3.51141	3.5382	3.57147	3.59948	3.61759	3.63517	3.65469	3.67663	3.6866	3.70417	3.70345	3.70783	3.68257	3.66037	3.67694	3.67798	3.68798	3.70785	3.74244	3.72304	3.69788	3.67264	3.62766	3.61511	3.61937	3.62986	3.66291	3.7009	3.70501	3.71774	3.6641	3.62076	3.58333	3.55269	3.52519	3.51355	3.51913	3.59121	3.59718	3.59943	3.60613	3.61685	3.6317	3.63696	3.63975	3.64073	3.63966	3.63612	3.62962	3.61972	3.6079	3.58885	3.5616	3.37977	3.16375	2.86263
20	-20	2.47878	3.07186	3.58637	4.03783	4.34139	4.45043	4.48917	4.49099	4.41577	4.27393	4.14108	4.08821	4.05438	4.01172	3.96053	3.91613	3.82489	3.80552	3.80202	3.82613	3.8689	3.93703	3.97867	4.00981	4.01622	4.0019	3.95184	3.91102	3.99742	4.06456	4.14146	4.25746	4.31597	4.24696	3.95969	3.79382	4.11425	4.18581	4.25165	4.25109	4.24454	4.23254	4.21947	4.20227	4.18568	4.16744	4.14631	4.11464	4.08747	4.06541	4.03858	4.02212	4.00066	3.97524	3.96113	3.96108	3.95349	3.95939	3.96137	3.97107	3.97502	3.98846	3.99629	4.0128	3.98944	3.95901	3.95049	3.95575	3.9351	3.91408	3.91262	3.89334	3.88685	3.8858	3.87235	3.89886	3.86381	3.84668	3.8165	3.81555	3.81117	3.81772	3.82704	3.7968	3.76118	3.88852	4.01581	4.09737	4.11342	4.08562	4.08508	4.09249	4.10111	4.09425	4.09356	4.09625	4.10551	4.14462	4.10973	4.00472	3.84714	3.70291	3.62985	3.57531	3.55798	3.54569	3.63423	3.73277	3.83816	3.8555	3.84664	3.84387	3.82459	3.83856	4.16494	4.22599	4.26574	4.26849	4.2551	4.23653	4.02868	3.96163	3.94979	3.93953	3.92945	3.91551	3.92699	3.92707	3.92811	3.9257	3.92691	3.92643	3.92801	3.92901	3.93015	3.89816	3.91643	3.93748	3.95728	3.97937	3.99955	4.02113	4.03246	4.05082	4.06849	4.08521	4.09609	4.0978	4.10082	4.10234	4.10559	4.10665	4.10941	4.1096	4.1109	4.10941	4.10748	4.10377	4.09852	4.09264	4.08449	4.07676	4.06633	4.05519	4.04332	4.03137	4.01994	4.00918	3.9993	3.97667	3.95509	3.96122	3.95009	3.93617	3.92408	3.91177	3.9027	3.89476	3.88901	3.88441	3.88204	3.88084	3.88176	3.88386	3.88786	3.89307	3.89979	3.90769	3.91659	3.92674	3.93835	3.94937	3.95733	3.97207	3.98189	3.99662	4.01026	4.02993	4.05313	4.07499	4.09946	4.12319	4.14817	4.17301	4.19732	4.2018	4.20118	4.19877	4.1946	4.18871	4.18123	4.17232	4.16351	4.15532	4.14806	4.14199	4.13734	4.13366	4.09755	4.05759	4.02668	3.9959	3.97843	3.96758	4.04837	4.11862	4.13099	4.13005	4.129	4.12795	4.12692	4.12597	4.12515	4.12445	4.12393	4.12356	4.12332	4.1232	4.1037	4.08056	4.06518	4.05194	4.05425	4.06976	4.09158	4.10694	4.12117	4.12099	4.12105	4.12143	4.12218	4.12341	4.12428	4.09521	4.05282	3.98775	3.93445	3.88378	3.83125	3.72371	3.68519	3.68168	3.72469	3.77955	3.81939	3.88025	3.81326	4.11986	4.16182	4.17658	4.17797	4.17778	4.17762	4.11126	4.04659	3.98594	3.94436	3.93442	3.91702	3.93475	3.95617	3.98213	4.01406	4.04343	4.07161	4.05082	4.01993	3.98048	3.94269	3.89946	3.85604	3.81234	3.76776	3.72317	3.68259	3.62841	3.63299	3.64235	3.74846	3.77023	3.78207	3.82503	3.89879	3.89016	3.88666	3.85311	3.8132	3.75952	3.72095	3.68283	3.64958	3.62139	3.62128	3.63225	3.6607	3.66745	3.68942	3.72857	3.7501	3.75434	3.69559	3.67894	3.65734	3.63934	3.62377	3.61223	3.60636	3.60277	3.60796	3.67059	3.71462	3.69352	3.68124	3.6653	3.65718	3.64821	3.647	3.64707	3.6547	3.6112	3.60727	3.69191	3.86054	3.89417	3.85586	3.79675	3.76156	3.69158	3.68331	3.72065	3.697	3.73809	3.77348	3.80896	3.84069	3.88803	3.89787	3.90463	3.9104	3.91097	3.90877	3.90896	3.90474	3.87635	3.85671	3.83494	3.81328	3.81105	3.80574	3.85721	3.95087	4.01739	4.06231	4.10992	4.14968	4.1875	4.26395	4.31224	4.32779	4.31613	4.26852	4.22096	4.18653	4.14515	4.09791	4.05142	4.01759	3.98614	3.96768	3.99106	3.99132	4.01344	4.0357	4.06118	4.09039	4.11502	4.13998	4.13734	4.13776	4.13804	4.14077	4.14323	4.14761	4.15158	4.15695	4.16179	4.16732	4.17243	4.17732	4.18216	4.18565	4.18975	4.19113	4.19412	4.19275	4.17011	4.12459	4.11375	4.10511	4.09861	4.14106	4.15636	4.13618	4.12434	4.11168	4.10022	4.08642	4.07284	4.05658	4.0395	4.02169	4.003	3.98407	3.963	3.94114	3.91958	3.89882	3.90322	3.90965	3.92869	3.95581	3.9998	4.13131	4.21017	4.26583	4.32307	4.38227	4.442	4.50394	4.56375	4.62606	4.66129	4.70496	4.74896	4.77867	4.78947	4.80107	4.81178	4.82761	4.9727	5.09726	5.19879	5.29207	5.38575	5.48026	5.59284	5.78349	5.91745	6.07891	6.2789	6.50818	6.77177	7.02119	7.32559	7.71933	8.20845	8.65656	9.2493	9.85132	10.6584	11.4549	12.3931	13.4964	14.9424	16.6526	19.1936	21.1822	23.8782	27.3589	32.2346	39.5785	47.93	60.3469	78.8547	89.3754	100.808	115.72	119.86	110.039	88.2131	75.9534	59.3645	44.0439	37.9683	32.3372	27.4384	23.5164	20.5058	17.9651	16.1375	14.5007	13.2462	12.3724	11.606	10.7879	9.86587	9.11489	8.53216	8.0668	7.67087	7.28568	6.99521	6.78183	6.60343	6.44759	6.32167	6.21636	6.10153	5.99324	5.90347	5.80754	5.72264	5.61986	5.48053	5.35426	5.23413	5.11119	5.0069	4.89	4.82541	4.79844	4.7605	4.74346	4.7237	4.70936	4.69861	4.69001	4.68245	4.69789	4.67591	4.65768	4.63361	4.6005	4.51875	4.42646	4.35372	4.31944	4.31485	4.31933	4.27349	4.23646	4.18825	4.15195	4.11499	4.06569	4.02383	3.97488	3.93176	3.88459	3.83978	3.76695	3.74485	3.72264	3.70787	3.69547	3.68794	3.68545	3.7452	3.75563	3.77203	3.7871	3.80398	3.82162	3.83777	3.85601	3.87075	3.85994	3.84339	3.82374	3.80056	3.76181	3.74384	3.7243	3.69986	3.69355	3.76346	3.81422	3.8752	3.92723	3.9313	3.93469	3.8372	3.79337	3.74109	3.61817	3.60554	3.6107	3.65614	3.69607	3.8788	3.94144	3.92566	3.90926	3.89307	3.8763	3.86024	3.84323	3.82759	3.81096	3.79624	3.76619	3.73626	3.71313	3.74011	3.72766	3.71741	3.70821	3.70055	3.69496	3.69001	3.68765	3.68571	3.68634	3.68725	3.69031	3.69231	3.69652	3.6876	3.64723	3.62818	3.63723	3.64308	3.664	3.69675	3.68753	3.66559	3.65107	3.67029	3.68171	3.70379	3.74322	3.74036	3.73687	3.73286	3.7285	3.72394	3.70445	3.65344	3.63758	3.60195	3.58375	3.55036	3.52117	3.5219	3.52132	3.55944	3.62241	3.7007	3.71561	3.7207	3.72625	3.73218	3.7377	3.74452	3.75045	3.75782	3.76387	3.77084	3.77174	3.71983	3.6967	3.6809	3.66793	3.69617	3.72727	3.77305	3.76567	3.74533	3.72851	3.72805	3.72886	3.73106	3.73472	3.73997	3.73541	3.75403	3.77258	3.79179	3.82769	3.8416	3.80749	3.73373	3.68024	3.64963	3.62753	3.61172	3.61339	3.61824	3.63467	3.64853	3.66868	3.67852	3.65839	3.61374	3.57521	3.5334	3.49183	3.45897	3.41127	3.39773	3.38699	3.38134	3.43789	3.45657	3.48137	3.5104	3.54426	3.56721	3.57945	3.57691	3.57544	3.57464	3.57479	3.57845	3.5814	3.56599	3.55128	3.5413	3.53103	3.5046	3.4916	3.51798	3.54576	3.5809	3.63597	3.68533	3.73387	3.79136	3.84357	3.89915	3.95774	3.98282	3.97234	3.95186	3.94915	3.93233	3.9215	3.91228	3.90793	3.90182	3.88472	3.90196	3.9208	3.94061	3.99634	4.03183	3.97659	3.91515	3.85126	3.79063	3.73073	3.66359	3.60511	3.60497	3.60046	3.59067	3.59253	3.61585	3.63479	3.65721	3.67773	3.68285	3.66841	3.66385	3.62935	3.59249	3.55468	3.47052	3.41233	3.36362	3.30521	3.28309	3.25515	3.24232	3.27766	3.34025	3.39032	3.44341	3.50059	3.55797	3.61675	3.65028	3.65097	3.63396	3.63325	3.61818	3.61659	3.59417	3.57598	3.57041	3.5539	3.61235	3.67408	3.80379	3.91588	3.99091	4.01095	4.01868	3.98548	3.92572	3.87788	3.80788	3.77464	3.72579	3.67261	3.68125	3.66553	3.66218	3.66514	3.6379	3.62216	3.60768	3.5999	3.59886	3.59851	3.60003	3.6059	3.61369	3.62253	3.63325	3.64635	3.659	3.67535	3.689	3.70763	3.70772	3.69007	3.67863	3.66436	3.65494	3.64864	3.65192	3.64843	3.66132	3.67236	3.69507	3.71071	3.72552	3.74329	3.75549	3.77757	3.78708	3.80703	3.80498	3.81465	3.83109	3.84405	3.8608	3.87813	3.89918	3.9192	3.94534	3.9657	4.03364	4.09018	4.08133	4.07037	4.05912	4.04073	4.02174	3.96763	3.93811	3.90203	3.87017	3.82497	3.78211	3.74702	3.70895	3.6672	3.63517	3.60935	3.58341	3.56449	3.563	3.56508	3.56221	3.56172	3.56509	3.5707	3.57981	3.59092	3.60563	3.62154	3.64067	3.62472	3.60969	3.59254	3.58027	3.56892	3.56202	3.55655	3.56084	3.56542	3.56672	3.56953	3.57422	3.57869	3.58137	3.58085	3.57929	3.57744	3.57506	3.56919	3.56156	3.55532	3.54585	3.55403	3.55831	3.56984	3.57796	3.58921	3.60088	3.61329	3.6262	3.63838	3.62011	3.60396	3.5845	3.5682	3.53452	3.53481	3.53929	3.54789	3.56048	3.5737	3.54994	3.52827	3.51754	3.51054	3.51238	3.56219	3.63868	3.70421	3.76311	3.82051	3.88064	3.91199	3.92831	3.94104	3.93363	3.92096	3.89982	3.88286	3.82062	3.80635	3.79539	3.78216	3.77598	3.77757	3.7676	3.76922	3.77492	3.78247	3.75977	3.72663	3.71679	3.75546	3.78088	3.78378	3.7822	3.7862	3.7889	3.78996	3.78741	3.78734	3.7853	3.78424	3.7914	3.78353	3.78481	3.7792	3.77513	3.77072	3.76612	3.75778	3.75165	3.74184	3.73099	3.71955	3.70199	3.68554	3.66537	3.64706	3.6379	3.627	3.61706	3.604	3.58477	3.57325	3.56362	3.56494	3.52984	3.53694	3.53096	3.53375	3.50961	3.44365	3.36082	3.28368	3.31463	3.19636	3.08859	2.9764	2.69094
20	0	5.67921	5.39701	5.14688	4.94915	4.80495	4.6758	4.57069	4.51998	4.48993	4.4406	4.4275	4.37877	4.38079	4.38945	4.38475	4.37764	4.3728	4.3779	4.38714	4.38712	4.35628	4.32589	4.29601	4.27766	4.26511	4.2593	4.2765	4.29966	4.3267	4.35771	4.39443	4.42723	4.48118	4.52348	4.55824	4.58363	4.66516	4.73872	4.79973	4.80355	4.77264	4.74859	4.71593	4.6588	4.59399	4.50492	4.4263	4.34684	4.27639	4.21178	4.14975	4.10433	4.10932	4.06881	4.09122	4.12305	4.16479	4.20378	4.26021	4.31616	4.38173	4.44839	4.51529	4.61342	4.65085	4.67077	4.67873	4.66418	4.62359	4.57438	4.51837	4.47191	4.44106	4.42437	4.42803	4.42927	4.47329	4.45399	4.52319	4.55653	4.63661	4.59753	4.50076	4.36364	4.34239	4.2827	4.23406	4.20811	4.24492	4.34489	4.42548	4.4709	4.47772	4.47036	4.44969	4.45071	4.45235	4.45565	4.50883	4.54202	4.57917	4.62812	4.64006	4.64151	4.61599	4.574	4.5361	4.47132	4.35006	4.30418	4.26368	4.29158	4.31006	4.3322	4.39939	4.41106	4.41359	4.39564	4.37539	4.34926	4.32799	4.2969	4.22672	4.18556	4.15137	4.11178	4.07796	4.05503	4.02833	4.01534	3.99841	4.01549	4.01842	3.99854	3.99627	3.97716	4.01489	4.03591	4.07141	4.11037	4.15128	4.19374	4.23612	4.28121	4.32414	4.37117	4.41369	4.46189	4.50291	4.54938	4.59345	4.62843	4.47959	4.64997	4.67037	4.66141	4.58766	4.48856	4.40411	4.33168	4.27332	4.21849	4.20163	4.18895	4.18315	4.18643	4.19208	4.20818	4.21874	4.22115	4.22408	4.23034	4.2436	4.26131	4.24162	4.20522	4.17536	4.14799	4.1338	4.1311	4.20665	4.31781	4.40706	4.47712	4.45766	4.42931	4.42204	4.41493	4.40551	4.40901	4.40801	4.40153	4.46546	4.48509	4.4312	4.39396	4.35264	4.5032	4.55296	4.61169	4.64011	4.6667	4.67246	4.66554	4.64214	4.60742	4.54368	4.45095	4.41326	4.39996	4.3763	4.36333	4.37144	4.39618	4.41585	4.4506	4.48088	4.52532	4.56494	4.60865	4.64921	4.68727	4.71857	4.72926	4.72738	4.72712	4.7271	4.73812	4.76209	4.79583	4.79118	4.77347	4.77728	4.78919	4.74183	4.65893	4.58044	4.51305	4.42673	4.38247	4.35881	4.35049	4.33077	4.31434	4.29587	4.25953	4.2196	4.2992	4.36683	4.39671	4.38976	4.4003	4.39426	4.3758	4.36876	4.36246	4.36157	4.35698	4.35257	4.34147	4.32682	4.30198	4.30875	4.31574	4.29485	4.25682	4.24493	4.24296	4.25182	4.26777	4.29301	4.30781	4.35287	4.38173	4.37467	4.35054	4.30676	4.25377	4.21167	4.14778	4.1569	4.16498	4.18074	4.20548	4.23208	4.31	4.33153	4.27728	4.22154	4.18099	4.14148	4.09396	4.04181	4.01366	3.96145	3.90716	3.85959	3.85421	3.8676	3.87992	3.88411	3.88216	3.8705	3.85599	3.83699	3.82916	3.82932	3.85113	3.88476	3.9238	3.95747	3.97702	3.98646	3.99429	4.01474	4.06378	4.11318	4.16273	4.19589	4.21398	4.23097	4.2499	4.26711	4.27252	4.245	4.20291	4.18353	4.1759	4.16425	4.13347	4.09481	4.04899	3.92991	3.71441	3.67092	3.78995	3.90868	3.97152	4.08706	4.14526	4.21231	4.19753	4.20946	4.17857	4.15373	4.14199	4.12439	4.14029	4.14468	4.1241	4.09315	4.12909	4.1716	4.21214	4.22979	4.25571	4.27549	4.29616	4.31935	4.33435	4.33218	4.3377	4.33996	4.3579	4.37802	4.41126	4.43813	4.42894	4.38281	4.33671	4.27536	4.23993	4.2086	4.1772	4.15231	4.12547	4.10729	4.09954	4.10074	4.09798	4.0976	4.12406	4.12111	4.12063	4.11651	4.12239	4.15217	4.17288	4.19	4.20578	4.24039	4.27653	4.31759	4.36156	4.40412	4.45644	4.50528	4.55144	4.59567	4.64726	4.68791	4.73276	4.75954	4.76942	4.77753	4.78097	4.78029	4.77504	4.76566	4.75738	4.71833	4.72675	4.73554	4.74669	4.72882	4.69251	4.68595	4.68291	4.68572	4.68901	4.74413	4.77204	4.83282	4.87424	4.94034	4.98456	5.00498	5.01272	5.02194	5.03477	5.04898	5.06902	5.08976	5.11661	5.14469	5.19437	5.25238	5.28352	5.33489	5.38598	5.43885	5.49836	5.55238	5.58118	5.61938	5.66686	5.71691	5.77308	5.82672	5.88264	5.94324	6.01627	6.08072	6.14491	6.21638	6.3018	6.39775	6.53785	6.62134	6.71741	6.83459	6.977	7.30754	7.59184	7.93096	8.29419	8.70489	9.12982	9.56717	10.0472	10.5753	11.1562	11.7916	12.4707	13.1453	14.1776	15.0924	15.8968	16.891	18.1111	19.7221	21.8258	24.4111	27.643	31.974	36.2834	40.8176	44.3705	60.2276	67.1033	87.9579	105.05	139.809	165.798	200.627	231.32	239.222	227.007	195.832	163.412	128.984	102.236	85.7692	68.7712	54.6761	46.9808	40.6982	35.376	31.1714	27.8182	24.9818	22.0299	19.9096	18.175	16.7949	15.6476	14.6348	13.2576	12.2369	11.6308	11.0045	10.5053	10.0386	9.69627	9.35401	8.91612	8.59218	8.32126	7.97297	7.69101	7.42649	7.14318	7.04868	7.01554	7.10648	6.97418	6.83537	6.56784	6.2901	6.11096	6.01221	5.96205	5.98549	5.99557	5.93298	5.86425	5.79262	5.71464	5.63386	5.53374	5.43421	5.32845	5.25189	5.17476	5.10794	5.04278	4.99636	4.97708	4.95774	4.95112	4.94478	4.94584	4.9488	4.95262	4.95394	4.96019	4.9378	4.8951	4.82665	4.75937	4.68718	4.56483	4.44514	4.33244	4.24098	4.24596	4.26126	4.30403	4.38178	4.47003	4.56711	4.62948	4.63975	4.59866	4.52046	4.46474	4.41311	4.36173	4.26188	4.1535	4.03575	3.92783	3.82371	3.80282	3.78116	3.78718	3.80691	3.8446	3.88926	3.94609	4.00086	4.0573	4.09984	4.11237	4.12974	4.12491	4.12575	4.13069	4.12541	4.11945	4.10582	4.0885	4.06436	4.04635	4.02233	4.00229	3.99844	3.99811	4.02513	4.05662	4.20369	4.1903	4.1789	4.16407	4.09145	3.99781	3.85508	3.74827	3.66903	3.70665	3.75211	3.80222	3.9415	3.99224	3.99673	3.9622	3.93232	3.89896	3.8692	3.83594	3.78692	3.75638	3.72642	3.71648	3.69521	3.69913	3.71256	3.77487	3.80864	3.82285	3.84814	3.86386	3.86945	3.84107	3.79003	3.74944	3.73073	3.75085	3.8139	3.8967	3.85531	3.79653	3.7759	3.75322	3.75982	3.76584	3.77065	3.78389	3.81942	3.81571	3.82673	3.82755	3.81334	3.80215	3.79064	3.78121	3.74885	3.75227	3.75484	3.77039	3.77558	3.78883	3.79226	3.78907	3.78629	3.78376	3.78348	3.78321	3.78458	3.78529	3.78696	3.75477	3.72941	3.70517	3.68349	3.66564	3.64945	3.62997	3.62292	3.6042	3.61036	3.63235	3.65544	3.68052	3.70614	3.72836	3.75795	3.78117	3.80509	3.82798	3.84831	3.87823	3.89177	3.90586	3.91702	3.93171	3.89438	3.89324	3.88832	3.8839	3.87903	3.82754	3.75143	3.69834	3.64223	3.60028	3.57238	3.53877	3.60163	3.6048	3.62736	3.63609	3.64806	3.65996	3.66486	3.66804	3.67684	3.73769	3.7656	3.80257	3.84294	3.8259	3.80579	3.78607	3.70344	3.65225	3.6002	3.55369	3.49767	3.47194	3.43004	3.44204	3.49195	3.50464	3.54479	3.56896	3.58543	3.59234	3.614	3.65315	3.71095	3.77298	3.84298	3.88921	3.89091	3.86893	3.85108	3.85609	3.84214	3.82731	3.82017	3.81204	3.80901	3.80298	3.79931	3.78253	3.76754	3.75099	3.74038	3.72594	3.73662	3.74246	3.75244	3.76765	3.78029	3.81769	3.83053	3.84753	3.8612	3.87662	3.8918	3.90576	3.90553	3.91377	3.92215	3.93351	3.94402	3.95471	3.96877	3.98117	3.99696	4.01045	4.02666	4.02559	4.009	4.00021	3.96167	3.97241	3.98471	3.98593	4.01378	4.05661	4.08869	4.12458	4.15393	4.15131	4.14789	4.13774	4.126	4.11076	4.10219	4.06631	4.06475	4.06226	4.06136	4.11921	4.11444	4.09011	4.09408	4.10265	4.08642	4.06385	4.03635	4.0165	3.99519	4.00643	3.95459	3.93753	3.92446	3.90769	3.91623	3.8921	3.8932	3.90175	3.91094	3.89604	3.89801	3.91589	3.98123	4.00408	3.98181	3.9395	3.93286	3.93084	3.93099	3.93188	3.93417	3.96306	3.98423	3.996	4.01273	4.01163	3.9438	3.88003	3.86632	3.89703	3.91597	3.93745	3.94331	3.87456	3.84321	3.81679	3.80301	3.78358	3.77773	3.74196	3.7513	3.75332	3.7693	3.77797	3.80009	3.81504	3.84234	3.86546	3.92405	3.9649	3.99312	4.03211	4.06676	4.06726	4.03115	3.99064	3.9528	3.88787	3.82416	3.76	3.7152	3.68152	3.71784	3.74036	3.76226	3.79202	3.88495	3.90438	3.90903	3.91403	3.9195	3.92511	3.92637	3.89069	3.86689	3.84321	3.81562	3.78483	3.75076	3.72723	3.70211	3.6817	3.66085	3.64751	3.65416	3.73352	3.80353	3.87873	3.95941	4.03352	4.10788	4.13475	4.14439	4.15777	4.15589	4.15848	4.11682	4.07676	4.03839	3.99535	3.94243	3.90334	3.86544	3.8676	3.88146	3.90147	3.91768	3.93411	3.95815	3.98469	4.01861	4.04743	4.09562	4.14672	4.19908	4.24233	4.25117	4.2544	4.26581	4.26717	4.28208	4.26309	4.24496	4.19352	4.13211	4.10469	4.06411	4.03466	3.99004	3.92754	3.87161	3.8304	3.81462	3.80824	3.82532	3.8876	3.93445	3.99269	4.07471	3.93379	3.84593	3.73385	3.71747	3.75524	3.80588	3.88738	3.95825	4.02167	4.08181	4.05101	4.06412	4.07723	4.08283	4.09321	4.10706	4.11856	4.13491	4.14813	4.14365	4.12033	4.07363	4.04546	4.00714	3.97527	3.94358	3.90826	3.86404	3.82829	3.79886	3.77771	3.75775	3.77235	3.77395	3.78303	3.78537	3.7615	3.74813	3.72933	3.7175	3.70991	3.70497	3.71516	3.71871	3.7387	3.75089	3.76494	3.61589	3.40005
20	20	3.8906	3.78794	3.88662	3.98697	4.08884	4.19328	4.30384	4.33184	4.34681	4.37825	4.37023	4.36271	4.35135	4.33691	4.31931	4.30549	4.28829	4.27652	4.26559	4.25828	4.25807	4.25038	4.2764	4.25734	4.24211	4.23767	4.24196	4.23377	4.2132	4.24764	4.27953	4.3155	4.35385	4.39914	4.42283	4.40218	4.41955	4.43618	4.43745	4.39223	4.34704	4.30769	4.24971	4.24752	4.26242	4.2886	4.31841	4.35085	4.33336	4.29219	4.17	4.04447	3.92186	3.79397	3.67562	3.56655	3.47166	3.49208	3.45448	3.49543	3.55994	3.62211	3.73434	3.82478	3.92425	4.03804	4.14732	4.14857	4.13373	4.11833	4.09738	4.07482	4.04648	4.02688	4.00112	3.98629	3.92797	3.90022	3.8946	3.89668	3.91515	3.93406	3.95012	3.9841	4.01526	4.04431	4.08183	4.11579	4.15688	4.19669	4.22802	4.2428	4.25829	4.28611	4.30476	4.31736	4.34083	4.3654	4.38995	4.40054	4.40046	4.39913	4.39724	4.3927	4.38694	4.38094	4.37375	4.3655	4.35627	4.34316	4.32533	4.31053	4.29062	4.27227	4.25106	4.23192	4.20831	4.18837	4.16473	4.14429	4.12188	4.10172	4.0783	4.02856	4.01162	4.0056	3.99731	3.99844	3.99926	4.0068	4.02028	4.09551	4.12676	4.14526	4.11291	4.00339	3.88917	3.78718	4.17739	4.02186	4.10494	4.0662	4.02364	3.99311	3.93892	3.88957	3.845	3.81033	3.78712	3.81936	3.79807	3.85051	3.93893	4.01699	4.09442	4.18363	4.27647	4.36697	4.45065	4.5284	4.56755	4.58981	4.58294	4.57925	4.56641	4.55367	4.51118	4.46708	4.41751	4.35614	4.29677	4.26549	4.23145	4.20506	4.14891	4.08343	4.01336	3.92896	3.89427	3.86777	3.87086	3.87049	3.88531	3.90873	3.93335	3.97427	4.04837	4.11335	4.16186	4.18643	4.19924	4.20085	4.21528	4.24441	4.25229	4.25102	4.20157	4.10861	4.23982	4.20398	4.29607	4.27991	4.26229	4.2476	4.22919	4.22154	4.20798	4.20845	4.20941	4.22411	4.2505	4.29809	4.42385	4.40597	4.37227	4.32986	4.29474	4.257	4.22929	4.17436	4.19432	4.22252	4.25343	4.29134	4.33137	4.37102	4.37627	4.34777	4.3179	4.28225	4.21385	4.14779	4.08459	4.02237	3.96982	3.91603	3.87908	3.84126	3.82266	3.8058	3.912	3.99259	4.05492	4.14224	4.22946	4.29544	4.34951	4.38011	4.37267	4.37379	4.37511	4.41768	4.41072	4.40101	4.39077	4.38008	4.36792	4.3551	4.31466	4.22477	4.16152	4.03997	3.91393	3.7926	3.74325	3.74662	3.78171	3.84861	3.99568	4.09428	4.1776	4.18628	4.19079	4.19171	4.197	4.20529	4.21165	4.22099	4.22674	4.23769	4.24651	4.26301	4.28061	4.29217	4.19458	4.08325	3.99625	3.94029	3.86859	3.99239	4.12874	4.29561	4.4741	4.57347	4.61469	4.61681	4.60123	4.56081	4.44455	4.35284	4.25672	4.15539	4.01562	3.79898	3.69845	3.66188	3.64112	3.64779	3.66838	3.74386	3.76443	3.77957	3.79266	3.81327	3.80501	3.8024	3.78281	3.78991	3.76413	3.78955	3.77968	3.83217	3.88483	3.94194	4.00745	4.04862	4.10845	4.14061	4.14393	4.148	4.15298	4.15827	4.16369	4.16966	4.17488	4.14223	4.09758	4.01443	3.93599	3.85736	3.77979	3.71413	3.64689	3.65734	3.68782	3.74429	3.80814	3.88497	3.95869	3.99966	4.04257	4.07891	4.12274	4.13332	4.10571	4.08027	4.05232	4.01835	3.9888	3.9525	3.92238	3.854	3.87005	3.93169	3.97696	4.03197	4.09523	4.16016	4.22401	4.273	4.28405	4.2843	4.30449	4.32388	4.32594	4.32536	4.32355	4.30871	4.23708	4.17296	4.12905	4.06584	4.01223	4.06616	4.11497	4.17737	4.2126	4.25229	4.35082	4.41094	4.46877	4.52277	4.59097	4.59224	4.59331	4.56325	4.51655	4.47939	4.41488	4.34632	4.27576	4.19638	4.07522	4.02322	3.98225	3.94844	3.91776	3.95901	4.01499	4.07457	4.11288	4.15096	4.19683	4.23657	4.28383	4.32665	4.31167	4.31937	4.31845	4.30573	4.32058	4.36923	4.42739	4.54065	4.6255	4.70616	4.7803	4.84832	4.92871	5.00762	5.05849	5.09024	5.05789	4.99585	4.91886	4.84612	4.8509	4.85645	4.94581	5.02881	5.07995	5.12662	5.17319	5.22058	5.27067	5.3271	5.37461	5.41115	5.42745	5.45609	5.48531	5.50918	5.53787	5.56822	5.60318	5.64298	5.69325	5.74582	5.80407	5.85487	5.93239	6.0435	6.15383	6.28149	6.4205	6.55099	6.69125	6.95581	7.19233	7.4579	7.7755	8.25863	8.59048	9.01965	9.48928	9.93152	10.4363	11.0303	11.7306	12.689	13.7419	15.1632	16.7617	18.7764	21.1525	24.172	28.415	32.2469	37.1344	43.2125	51.4364	65.6161	82.5486	100.672	121.266	137.825	167.038	157.531	147.196	130.101	102.985	82.202	69.7558	55.4894	43.1476	34.9529	29.4419	25.9038	24.2973	23.2915	20.3911	17.9498	16.3112	14.6087	13.3199	12.2376	11.2984	10.4907	9.79777	9.20176	8.71041	8.3046	7.98536	7.75707	7.58942	7.47511	7.27812	7.16837	6.92548	6.65239	6.39242	6.11806	5.85588	5.62089	5.45133	5.31998	5.23775	5.19386	5.30724	5.29191	5.25674	5.14677	5.00688	4.91967	4.8444	4.77048	4.70462	4.61744	4.52626	4.41902	4.29827	4.21942	4.20196	4.20279	4.18981	4.19519	4.20539	4.21219	4.22526	4.22553	4.28619	4.36312	4.46144	4.56743	4.66457	4.72668	4.74842	4.73639	4.71457	4.68626	4.65185	4.60263	4.55491	4.50126	4.4642	4.42813	4.42006	4.42764	4.43046	4.45166	4.47586	4.47842	4.48968	4.42789	4.35858	4.30732	4.38004	4.43773	4.47976	4.44403	4.41044	4.33777	4.2362	4.16569	4.08756	4.06098	4.04578	4.08081	4.038	4.0016	3.97787	3.91553	3.8416	3.76426	3.69264	3.62961	3.55805	3.60503	3.62834	3.66601	3.71693	3.70682	3.70074	3.72194	3.73107	3.74516	3.77918	3.81641	3.85032	3.88323	3.87688	3.89608	3.91398	3.92982	3.94488	3.93658	3.92961	3.93797	3.93671	3.94407	3.93387	3.96118	3.98115	4.01269	4.04543	4.08962	4.12711	4.14629	4.12856	4.1093	4.09156	4.06512	4.01347	3.95555	3.88881	3.82316	3.76447	3.72269	3.72567	3.72634	3.73048	3.74296	3.7628	3.81667	3.8466	3.83225	3.81568	3.75016	3.6629	3.5624	3.47934	3.40544	3.32814	3.29804	3.26628	3.36028	3.44006	3.50757	3.57763	3.68101	3.70593	3.73523	3.75068	3.77113	3.70772	3.69039	3.65002	3.61707	3.57402	3.5277	3.47617	3.50033	3.51945	3.58573	3.64276	3.70125	3.76577	3.82002	3.86519	3.88363	3.8588	3.86796	3.87205	3.86822	3.83128	3.79224	3.74554	3.71279	3.66841	3.61991	3.57221	3.52531	3.4763	3.41932	3.36459	3.32665	3.26997	3.33054	3.36544	3.39097	3.42597	3.46289	3.50551	3.55002	3.58541	3.64348	3.66008	3.68621	3.7081	3.7655	3.80282	3.80719	3.84328	3.85181	3.85998	3.84303	3.81427	3.79048	3.76505	3.80849	3.86119	3.88934	3.91404	3.94121	3.96769	4.00034	4.03458	4.01405	3.9173	3.81721	3.77377	3.76423	3.79468	3.83387	3.86853	3.86971	3.85465	3.83352	3.81251	3.79853	3.81104	3.84229	3.86754	3.93814	3.94337	3.94849	3.91709	3.77294	3.53306	3.50816	3.56964	3.6855	3.94543	4.06016	4.08463	4.10982	4.13599	4.16195	4.07153	3.90692	3.75621	3.66183	3.60521	3.58016	3.60903	3.67343	3.75602	3.86705	3.9715	4.04093	4.06621	4.07513	4.07265	4.07007	4.05999	4.04971	4.02199	3.96412	3.93511	3.91369	3.92589	3.91911	3.91115	3.90562	3.93407	3.95982	3.96458	3.96578	3.98108	3.95629	3.9161	3.86464	3.82747	3.79606	3.77086	3.75387	3.74438	3.74505	3.77905	3.83475	3.89688	3.94596	3.88007	3.82429	3.77428	3.6781	3.60031	3.64178	3.67678	3.72869	3.79505	3.85143	3.92654	3.97815	4.04498	4.0667	4.0911	4.08415	4.06772	4.03012	4.00148	3.92838	3.92066	3.91735	3.91253	3.9183	3.91898	3.9569	3.95803	3.99775	4.00388	4.03253	4.00926	3.97725	3.94423	3.90232	3.86572	3.81686	3.77793	3.71576	3.66003	3.61251	3.56963	3.52847	3.50376	3.46261	3.41511	3.41057	3.42107	3.42524	3.4643	3.49316	3.53528	3.56575	3.60207	3.64027	3.67426	3.71059	3.74698	3.77541	3.80595	3.78812	3.74577	3.7076	3.67297	3.62694	3.53353	3.53192	3.52353	3.5275	3.53115	3.5369	3.545	3.52903	3.48888	3.43948	3.3953	3.4142	3.4325	3.4611	3.56627	3.67739	3.74149	3.81809	3.8811	3.94556	4.00364	3.98978	3.93569	3.90326	3.8657	3.83708	3.81489	3.81053	3.77299	3.77865	3.78029	3.78658	3.79691	3.79365	3.74167	3.69239	3.64154	3.60312	3.56092	3.53129	3.49785	3.5075	3.59493	3.66297	3.74366	3.83197	3.88316	3.90686	3.95431	3.99402	4.04507	4.06005	4.0422	4.02062	3.99862	3.97377	3.9628	3.95468	3.90774	3.7751	3.74565	3.71899	3.70279	3.73382	3.73493	3.74826	3.76331	3.77675	3.78832	3.79776	3.81169	3.81402	3.82484	3.8308	3.84178	3.8503	3.85593	3.85797	3.85724	3.85457	3.85825	3.85755	3.8604	3.86009	3.86178	3.86112	3.86141	3.86045	3.85992	3.86025	3.86029	3.86182	3.86274	3.86565	3.87021	3.87443	3.87836	3.88156	3.88563	3.89008	3.89333	3.89573	3.89708	3.89749	3.8972	3.89759	3.89618	3.89479	3.87971	3.86481	3.85449	3.84149	3.8328	3.82415	3.81812	3.81345	3.80955	3.81454	3.80895	3.80448	3.79953	3.78954	3.78691	3.77973	3.76715	3.75392	3.7402	3.7261	3.71138	3.69666	3.68195	3.66717	3.65242	3.63773	3.62303	3.6091	3.59484	3.58026	3.56529	3.55037	3.53506	3.51964	3.50434	3.4894	3.47519	3.42806	3.21232	3.1136
