Acq. time (s)=	4
Accumulations=	3
Range=	Off
Autofocus=	At all XY pixels
SWIFT=	Off
AutoExposure=	Off
Spike filter=	Multiple accum.
Delay time (s)=	0
Binning=	1
Readout mode=	Signal
DeNoise=	Standard
ICS correction=	On
Dark correction=	Off
Inst. Process=	Off
Instrument=	LabRAM S3000
Detector=	Synapse
Objective=	x100
Grating=	1800
ND Filter=	25%
Laser (nm)=	632.81 
Spectro (cm-¹)=	521.228
Slit=	100.021
Hole=	199.981
Microscope=	Principal
StageXY=	Märzhauser
StageZ=	Märzhauser
Z (µm)=	2.4
Project=	
Sample=	
Site=	
Title=	SOP_200nm_furu_p0
Remark=	
Date=	14.06.2019 10:27
Operator=	
Acquired=	14.06.2019 10:27:23
		358.285	358.609	358.934	359.26	359.585	359.909	360.235	360.56	360.886	361.21	361.535	361.859	362.185	362.51	362.834	363.16	363.485	363.809	364.135	364.459	364.784	365.108	365.434	365.758	366.083	366.407	366.733	367.057	367.381	367.705	368.03	368.355	368.68	369.004	369.328	369.652	369.978	370.302	370.626	370.95	371.274	371.598	371.923	372.248	372.572	372.896	373.22	373.544	373.868	374.192	374.516	374.84	375.164	375.49	375.813	376.137	376.461	376.785	377.109	377.433	377.757	378.081	378.404	378.728	379.052	379.376	379.699	380.023	380.347	380.671	380.994	381.318	381.642	381.965	382.288	382.611	382.935	383.258	383.582	383.906	384.229	384.553	384.876	385.2	385.522	385.845	386.169	386.492	386.816	387.139	387.463	387.785	388.108	388.431	388.755	389.078	389.402	389.723	390.047	390.37	390.693	391.015	391.338	391.662	391.985	392.307	392.63	392.953	393.276	393.598	393.921	394.244	394.566	394.889	395.212	395.535	395.857	396.18	396.503	396.825	397.148	397.471	397.792	398.115	398.437	398.76	399.083	399.404	399.727	400.049	400.372	400.694	401.016	401.339	401.66	401.983	402.304	402.627	402.95	403.271	403.594	403.915	404.238	404.559	404.882	405.203	405.526	405.847	406.17	406.491	406.814	407.135	407.456	407.778	408.1	408.422	408.743	409.066	409.387	409.708	410.03	410.351	410.674	410.995	411.316	411.638	411.959	412.282	412.602	412.923	413.246	413.567	413.888	414.21	414.531	414.852	415.174	415.495	415.815	416.136	416.458	416.779	417.1	417.421	417.743	418.064	418.384	418.705	419.027	419.348	419.668	419.989	420.311	420.632	420.952	421.273	421.593	421.914	422.236	422.556	422.877	423.197	423.518	423.838	424.16	424.481	424.801	425.121	425.442	425.762	426.083	426.403	426.723	427.044	427.365	427.686	428.006	428.326	428.647	428.967	429.287	429.607	429.927	430.248	430.568	430.888	431.208	431.528	431.848	432.169	432.489	432.809	433.129	433.449	433.769	434.088	434.408	434.728	435.048	435.368	435.688	436.008	436.327	436.647	436.967	437.287	437.606	437.926	438.245	438.565	438.885	439.205	439.523	439.843	440.163	440.483	440.802	441.121	441.44	441.76	442.08	442.4	442.718	443.037	443.357	443.677	443.995	444.315	444.634	444.954	445.272	445.591	445.911	446.229	446.549	446.868	447.186	447.506	447.825	448.143	448.463	448.782	449.1	449.419	449.739	450.057	450.376	450.695	451.013	451.333	451.65	451.97	452.288	452.607	452.926	453.244	453.563	453.881	454.2	454.518	454.837	455.155	455.474	455.792	456.111	456.428	456.748	457.065	457.384	457.702	458.021	458.338	458.658	458.975	459.294	459.612	459.929	460.248	460.566	460.884	461.202	461.519	461.838	462.156	462.475	462.792	463.109	463.428	463.746	464.063	464.382	464.699	465.016	465.335	465.652	465.97	466.288	466.606	466.923	467.242	467.559	467.876	468.193	468.512	468.829	469.146	469.463	469.782	470.099	470.416	470.733	471.05	471.369	471.686	472.003	472.32	472.637	472.954	473.272	473.589	473.906	474.223	474.54	474.857	475.174	475.492	475.809	476.126	476.442	476.759	477.076	477.393	477.71	478.026	478.343	478.66	478.977	479.293	479.61	479.928	480.245	480.562	480.878	481.195	481.512	481.828	482.145	482.461	482.777	483.093	483.41	483.726	484.043	484.359	484.676	484.992	485.309	485.625	485.942	486.258	486.575	486.889	487.206	487.522	487.839	488.155	488.471	488.788	489.104	489.419	489.735	490.051	490.368	490.684	490.999	491.315	491.631	491.947	492.264	492.578	492.895	493.211	493.527	493.842	494.158	494.474	494.79	495.104	495.421	495.737	496.051	496.367	496.683	496.998	497.314	497.63	497.944	498.26	498.576	498.891	499.206	499.522	499.837	500.153	500.469	500.783	501.099	501.413	501.729	502.043	502.359	502.675	502.989	503.305	503.619	503.935	504.249	504.565	504.879	505.195	505.509	505.825	506.139	506.454	506.769	507.084	507.398	507.714	508.028	508.343	508.658	508.973	509.287	509.601	509.917	510.231	510.546	510.86	511.174	511.489	511.803	512.119	512.433	512.747	513.062	513.376	513.69	514.005	514.319	514.633	514.948	515.262	515.576	515.891	516.204	516.518	516.832	517.147	517.461	517.775	518.088	518.403	518.717	519.031	519.344	519.659	519.973	520.287	520.6	520.914	521.229	521.542	521.856	522.169	522.483	522.797	523.111	523.425	523.738	524.052	524.365	524.679	524.992	525.305	525.62	525.934	526.247	526.56	526.874	527.187	527.5	527.814	528.127	528.44	528.753	529.067	529.38	529.693	530.006	530.32	530.633	530.946	531.259	531.572	531.885	532.198	532.512	532.825	533.138	533.451	533.764	534.077	534.39	534.702	535.015	535.328	535.641	535.953	536.266	536.579	536.892	537.204	537.517	537.83	538.142	538.455	538.768	539.08	539.392	539.705	540.018	540.331	540.642	540.955	541.268	541.58	541.893	542.204	542.517	542.83	543.141	543.454	543.766	544.079	544.39	544.703	545.015	545.327	545.639	545.952	546.263	546.575	546.888	547.199	547.511	547.824	548.135	548.447	548.76	549.071	549.383	549.694	550.007	550.319	550.63	550.942	551.253	551.565	551.876	552.189	552.5	552.812	553.123	553.435	553.746	554.058	554.369	554.681	554.992	555.304	555.615	555.927	556.237	556.55	556.86	557.172	557.483	557.795	558.106	558.416	558.728	559.039	559.351	559.662	559.972	560.284	560.595	560.905	561.217	561.528	561.838	562.15	562.46	562.771	563.083	563.393	563.704	564.015	564.326	564.636	564.947	565.258	565.569	565.879	566.189	566.501	566.811	567.122	567.432	567.743	568.054	568.364	568.674	568.984	569.296	569.606	569.916	570.226	570.536	570.847	571.158	571.468	571.778	572.088	572.398	572.708	573.018	573.329	573.639	573.95	574.26	574.57	574.88	575.19	575.5	575.81	576.12	576.429	576.739	577.049	577.359	577.669	577.979	578.289	578.598	578.908	579.218	579.528	579.837	580.147	580.457	580.767	581.076	581.386	581.694	582.004	582.314	582.623	582.933	583.242	583.552	583.862	584.171	584.479	584.789	585.098	585.408	585.718	586.027	586.335	586.645	586.954	587.263	587.573	587.881	588.19	588.5	588.809	589.119	589.426	589.736	590.045	590.354	590.662	590.972	591.281	591.589	591.898	592.207	592.515	592.824	593.134	593.441	593.751	594.06	594.367	594.677	594.986	595.294	595.603	595.912	596.219	596.528	596.836	597.145	597.454	597.762	598.071	598.378	598.687	598.995	599.304	599.611	599.92	600.228	600.537	600.846	601.153	601.462	601.77	602.077	602.386	602.693	603.002	603.309	603.618	603.926	604.234	604.542	604.85	605.158	605.465	605.774	606.081	606.39	606.697	607.004	607.313	607.62	607.927	608.236	608.543	608.85	609.159	609.466	609.773	610.081	610.389	610.696	611.004	611.311	611.618	611.925	612.234	612.541	612.848	613.155	613.463	613.77	614.077	614.384	614.691	614.999	615.306	615.613	615.92	616.227	616.535	616.842	617.149	617.456	617.762	618.069	618.376	618.684	618.991	619.298	619.604	619.911	620.218	620.524	620.831	621.138	621.444	621.751	622.058	622.366	622.672	622.979	623.286	623.592	623.899	624.205	624.512	624.818	625.125	625.431	625.738	626.044	626.349	626.656	626.962	627.269	627.575	627.881	628.188	628.494	628.8	629.107	629.413	629.719	630.024	630.331	630.637	630.943	631.25	631.556	631.861	632.167	632.473	632.779	633.085	633.392	633.696	634.003	634.309	634.615	634.919	635.226	635.532	635.838	636.142	636.448	636.754	637.06	637.365	637.671	637.977	638.282	638.588	638.894	639.198	639.504	639.81	640.114	640.42	640.726	641.031	641.337	641.642	641.947	642.253	642.557	642.863	643.169	643.473	643.779	644.083	644.389	644.693	644.999	645.305	645.609	645.914	646.219	646.524	646.829	647.134	647.438	647.744	648.048	648.354	648.658	648.962	649.268	649.572	649.877	650.181	650.487	650.791	651.095	651.4	651.704	652.01	652.314	652.618	652.923	653.227	653.533	653.836	654.14	654.446	654.75	655.054	655.357	655.663	655.967	656.27	656.576	656.879	657.183	657.488	657.792	658.096	658.4	658.705	659.009	659.312	659.616	659.92	660.225	660.529	660.832	661.136	661.44	661.745	662.048	662.352	662.655	662.959	663.263	663.566	663.871	664.175	664.478	664.782	665.085	665.389	665.692	665.996	666.299	666.602	666.906	667.209	667.514	667.817	668.121	668.424	668.728	669.031	669.334	669.638	669.941	670.244	670.547	670.851	671.154	671.456	671.759	672.062	672.365	672.669	672.972	673.275	673.578	673.881	674.184	674.487	674.791	675.092	675.395	675.698	676.002	676.305	676.608	676.911	677.212	677.515	677.818	678.121	678.424	678.726	679.029	679.332
-20	-20	4.1245	4.28662	4.38588	4.43601	4.61508	4.81347	4.99322	5.02824	5.04918	5.07023	5.07668	5.03624	4.96194	4.88426	4.80738	4.73184	4.655	4.58342	4.52757	4.48779	4.44273	4.41216	4.38188	4.33711	4.32776	4.30907	4.34035	4.37278	4.43066	4.50503	4.53589	4.61331	4.6067	4.55854	4.50964	4.45824	4.4079	4.36065	4.32345	4.28343	4.29235	4.30695	4.44024	4.53134	4.6346	4.66434	4.6513	4.52943	4.50285	4.48931	4.51659	4.53545	4.54337	4.55939	4.53367	4.50191	4.47951	4.43017	4.49578	4.56848	4.63358	4.71198	4.73385	4.73526	4.70803	4.65775	4.62674	4.57497	4.53173	4.48563	4.44963	4.405	4.36396	4.35619	4.34254	4.3621	4.37317	4.39946	4.41067	4.39951	4.3933	4.39026	4.38367	4.40057	4.4195	4.43769	4.45474	4.4474	4.40583	4.39082	4.37226	4.36451	4.36257	4.36762	4.38277	4.39738	4.42533	4.44849	4.4851	4.54301	4.58221	4.62407	4.669	4.70168	4.73138	4.69434	4.73864	4.75663	4.72137	4.72407	4.74698	4.71948	4.68588	4.64758	4.58226	4.53783	4.5066	4.49604	4.49248	4.48373	4.47283	4.45623	4.40122	4.31094	4.29458	4.2984	4.31869	4.35691	4.39777	4.41942	4.43262	4.43481	4.43595	4.43298	4.42206	4.39021	4.3769	4.43482	4.37936	4.27887	4.23289	4.16164	4.15673	4.12117	4.17202	4.24299	4.32551	4.41362	4.51227	4.60409	4.67524	4.63393	4.58897	4.52413	4.46939	4.44838	4.46885	4.44886	4.43257	4.42029	4.42671	4.43694	4.44521	4.48814	4.52304	4.56357	4.58536	4.60415	4.64096	4.67796	4.69086	4.71255	4.70949	4.69657	4.66266	4.6121	4.56542	4.52146	4.47539	4.44145	4.42459	4.40341	4.41024	4.4177	4.41139	4.40814	4.41474	4.42416	4.43478	4.4729	4.49401	4.50092	4.51198	4.49581	4.48263	4.27738	4.19111	4.1604	4.18696	4.23688	4.29541	4.35245	4.44244	4.52527	4.56862	4.58312	4.54525	4.54727	4.60854	4.64842	4.73565	4.81038	4.87009	4.91173	4.95001	4.9042	4.78464	4.61626	4.44516	4.27802	4.15492	4.08704	4.07211	4.24806	4.48072	4.50376	4.52053	4.58279	4.58383	4.64937	4.66893	4.66512	4.74401	4.77249	4.80835	4.81828	4.85816	4.8857	4.93042	4.97179	4.96026	4.95633	4.93535	4.89355	4.85303	4.81124	4.76582	4.70388	4.63721	4.5673	4.49276	4.41019	4.3525	4.29275	4.23291	4.18078	4.14851	4.12597	4.15676	4.22331	4.33788	4.39002	4.46058	4.51243	4.54954	4.5683	4.50181	4.45233	4.41158	4.37083	4.3273	4.28731	4.25488	4.22048	4.14707	4.15165	4.15372	4.18194	4.21149	4.22787	4.21807	4.23323	4.25037	4.27027	4.29235	4.31759	4.34507	4.3747	4.40619	4.42373	4.36841	4.3927	4.38576	4.45079	4.62214	4.53345	4.28215	4.16311	4.36782	4.04414	4.18996	4.45512	4.28483	4.33	4.28356	4.28641	4.30992	4.33127	4.38199	4.40114	4.39073	4.37792	4.36442	4.36616	4.35573	4.34524	4.3357	4.33565	4.32745	4.31894	4.30972	4.30162	4.29396	4.26537	4.20906	4.1568	4.13073	4.11615	4.11609	4.13017	4.16837	4.19646	4.2466	4.24278	4.23515	4.21376	4.19587	4.18066	4.15227	4.14343	4.13359	4.08864	4.07348	4.06661	4.11061	4.13871	4.14157	4.16924	4.17373	4.17441	4.22517	4.28885	4.34979	4.39379	4.44361	4.50173	4.50098	4.45968	4.39098	4.33985	4.3023	4.27117	4.24474	4.27895	4.31644	4.33283	4.36722	4.40534	4.41062	4.40356	4.40386	4.40721	4.40187	4.45802	4.54516	4.58113	4.55837	4.51651	4.48996	4.45561	4.45368	4.48859	4.53492	4.57409	4.59152	4.62212	4.65722	4.60782	4.5672	4.55221	4.55561	4.5509	4.57131	4.59967	4.60515	4.61212	4.62219	4.6167	4.58816	4.54759	4.49611	4.45041	4.39523	4.37991	4.35982	4.33047	4.30674	4.28656	4.28865	4.28853	4.35291	4.38478	4.39259	4.4364	4.51907	4.57841	4.61799	4.55544	4.66379	4.87497	4.98435	4.93243	4.92034	4.57987	4.55027	4.49738	4.54905	4.60475	4.6861	4.76657	4.84691	4.92776	5.00689	5.08475	5.15673	5.19432	5.19869	5.22123	5.24537	5.2924	5.3529	5.4123	5.43902	5.46669	5.45878	5.48726	5.51912	5.53938	5.52568	5.51584	5.50951	5.50932	5.60255	5.68487	5.80181	5.93331	6.03791	6.10902	6.18734	6.28356	6.38166	6.48901	6.61692	6.72365	6.80188	6.83747	6.91356	6.98747	7.02902	7.0657	7.1862	7.3655	7.60459	7.77463	7.90911	8.03882	8.16184	8.34386	8.55091	8.9261	9.26501	9.61083	10.1293	10.7271	11.5609	12.4089	13.331	13.7789	16.0338	17.4838	19.3641	21.399	23.6637	26.2748	29.375	33.0887	38.0377	43.6076	50.0259	58.3923	69.3686	93.5331	109.013	133.439	162.582	199.314	225.185	235.511	214.452	180.544	156.921	126.244	102.27	83.3266	67.7652	57.3641	44.6523	38.4865	35.5511	31.0349	27.4124	24.5155	22.3761	20.686	19.3008	17.6879	16.2652	14.9526	13.7936	12.8562	11.9495	11.3186	10.6884	10.197	9.80256	9.45834	9.20768	8.94045	8.62421	8.29752	8.02908	7.75939	7.51311	7.29938	7.13158	6.99045	6.90402	6.83986	6.77494	6.68571	6.61962	6.57014	6.49841	6.45226	6.42163	6.3763	6.29104	6.23831	6.1529	6.06052	6.00482	5.93507	5.86473	5.79505	5.72041	5.69108	5.66817	5.62737	5.59417	5.54086	5.49218	5.41207	5.38094	5.38213	5.39082	5.40367	5.38988	5.37748	5.36269	5.2555	5.16086	5.10456	5.03551	4.97667	4.9253	4.8412	4.57699	4.41985	4.32666	4.24363	4.1947	4.16653	4.23098	4.33995	4.38214	4.37627	4.39396	4.42447	4.45102	4.46796	4.48862	4.49828	4.5075	4.49245	4.45811	4.36142	4.31546	4.279	4.25957	4.22519	4.20188	4.17013	4.10883	4.02287	3.97767	3.92406	3.85823	3.84724	3.8059	3.751	3.80875	3.86537	3.94843	4.02364	4.09071	4.15623	4.24908	4.30091	4.35624	4.39357	4.43616	4.4128	4.36788	4.07987	4.07131	4.15488	4.23831	4.29306	4.31598	4.26276	4.1875	4.13664	4.11454	4.12211	4.17561	4.24605	4.35017	4.32064	4.28976	4.25864	4.22705	4.19786	4.16917	4.1409	3.78035	3.59071	4.01019	3.94649	4.03145	4.09666	4.08567	4.08939	4.07469	4.05712	4.0547	4.04649	4.04588	4.04491	4.00579	3.92838	3.85187	3.67265	3.65371	3.68881	3.72996	3.7543	3.7806	3.80156	3.84158	3.87599	3.92978	3.93655	3.92966	3.90619	3.91806	3.93405	3.96073	3.95119	3.86087	3.85656	3.89937	3.93624	3.9655	4.00679	4.02983	4.04017	4.04401	4.04041	4.05902	4.07774	4.09725	4.10141	4.08068	4.04567	4.03159	4.01898	4.0354	4.07315	4.09323	4.13769	4.15734	4.16278	4.16568	4.1787	4.19164	4.20666	4.2215	4.23811	4.25452	4.27259	4.29013	4.30922	4.31856	4.32217	4.30999	4.25069	4.19254	4.13469	4.05855	4.01154	3.97387	3.93551	3.90003	3.90833	3.91905	3.90746	3.9069	3.90867	3.90285	3.89444	3.89373	3.90212	3.91868	3.8905	3.9043	3.92468	3.93067	3.9189	3.93567	3.98507	4.02204	4.03103	4.03861	4.04588	4.05295	4.05891	4.06762	4.05069	4.03188	4.01489	3.9998	3.98665	3.97544	3.96615	3.95873	3.95307	3.94907	3.94654	3.94532	3.94105	3.94594	3.94697	3.94306	3.94098	3.95202	3.953	3.9534	3.9531	3.95201	3.95009	3.94377	3.94383	3.93964	3.93493	3.92985	3.92465	3.91957	3.91483	3.91075	3.90752	3.90537	3.9046	3.90541	3.90805	3.91253	3.91863	3.92825	3.93807	3.95107	3.96484	3.98126	3.999	4.01872	4.0403	4.06301	4.08789	4.11294	4.14023	4.15787	4.15059	4.15877	4.15095	4.17813	4.2085	4.20128	4.20365	4.13365	4.1281	4.11229	4.10547	4.07908	4.14994	4.29435	4.35612	4.42956	4.48191	4.5297	4.56557	4.57688	4.60998	4.63116	4.64235	4.66376	4.67642	4.71401	4.72783	4.57592	4.37113	4.15466	3.93197	3.70514	3.78534	3.81219	3.91174	4.19935	4.31774	4.35069	4.30821	4.28216	4.2739	4.24647	4.2261	4.21435	4.19242	4.19779	4.17643	4.15016	4.1646	4.17248	4.19559	4.21648	4.25087	4.28524	4.32238	4.36153	4.38437	4.39284	4.37959	4.37062	4.3406	4.31139	4.27454	4.27364	4.28336	4.28269	4.27729	4.24442	4.19236	4.13032	4.13862	4.1485	4.16137	4.17497	4.2392	4.28555	4.29858	4.33097	4.31687	4.3051	4.29051	4.26812	4.2479	4.22449	4.18328	4.15266	4.14377	4.14674	4.14878	4.12338	4.09184	4.0612	4.03401	3.99208	3.97419	3.94873	3.93614	3.91579	3.90813	3.89399	3.88053	3.86423	3.87476	3.88696	3.92565	3.94808	3.9325	3.96114	3.99232	4.04115	4.10387	4.14436	4.17826	4.21128	4.24244	4.08691	4.09137	4.0975	4.02867	4.00526	4.00887	4.03782	4.02699	4.02376	3.99759	3.9959	4.01153	4.00387	3.99126	3.98342	3.9806	3.97812	3.97534	3.94999	3.92894	3.93488	3.92994	3.98082	4.02035	4.09	4.12691	4.15873	4.18941	4.21966	4.24473	4.2635	4.2877	4.3008	4.2531	4.25268	4.25408	4.3017	4.34404	4.3976	4.40545	4.36119	4.29426	4.20885	4.15938	4.14886	4.16898	4.26828	4.29844	4.49797	4.54046	4.53618	4.51606	4.47548	4.41899	4.33482	4.24796	4.16663	4.08848	4.0173	3.94716	3.94772	3.92212	3.90005	3.88133	3.86717	3.85734	3.84971	3.84462	3.83799	3.8373	3.8507	3.84035	3.87028	3.91419	3.96174	4.01473	4.07507	4.12416	4.19566	4.25359	4.26988	4.28286	4.29111	4.28562	4.20127	4.16681	4.12841	4.10027	4.0712	4.05357	4.04467	4.06039	4.08129	4.12127	4.18739	4.18421	4.18431	4.22737	4.23897	3.64188
-20	0	4.26835	4.37798	4.45425	4.52972	4.60186	4.58759	4.53172	4.51919	4.48988	4.48679	4.41032	4.35397	4.32441	4.30659	4.31485	4.3086	4.31279	4.32971	4.33181	4.34253	4.35124	4.44271	4.47502	4.5229	4.53671	4.5988	4.64864	4.704	4.73026	4.75874	4.78467	4.80297	4.80023	4.79698	4.79216	4.78893	4.78482	4.78319	4.77727	4.77431	4.75954	4.75082	4.70948	4.70819	4.70806	4.70834	4.7084	4.70006	4.68149	4.66578	4.64567	4.62523	4.59962	4.55997	4.54724	4.53048	4.514	4.4722	4.46382	4.43498	4.42807	4.42326	4.44555	4.45317	4.48816	4.51056	4.54195	4.60487	4.64818	4.67086	4.69376	4.63725	4.60797	4.59938	4.57983	4.57071	4.58475	4.62353	4.75488	4.77168	4.74412	4.65751	4.53895	4.44316	4.34135	4.27625	4.19042	4.13756	4.09384	4.12327	4.15316	4.22179	4.2663	4.3552	4.48955	4.59847	4.66062	4.66734	4.6677	4.66385	4.67754	4.67552	4.68348	4.68354	4.69657	4.71947	4.68817	4.64647	4.61763	4.52917	4.45263	4.39162	4.32082	4.27485	4.22419	4.16307	4.1636	4.15353	4.1755	4.23121	4.27115	4.33358	4.38042	4.4685	4.53392	4.57536	4.57739	4.58522	4.60131	4.61958	4.6552	4.67748	4.68985	4.68371	4.67119	4.64417	4.60819	4.58117	4.5852	4.48469	4.34554	4.24133	4.17002	4.13983	4.14586	4.16379	4.22557	4.29712	4.3899	4.46579	4.54204	4.59136	4.59359	4.52897	4.5765	4.61881	4.64317	4.59541	4.55952	4.50218	4.46752	4.43848	4.41605	4.38712	4.38382	4.41252	4.45125	4.50389	4.54829	4.54734	4.58905	4.65623	4.72068	4.75962	4.78064	4.80424	4.79988	4.71487	4.58862	4.4323	4.28782	4.17797	4.04018	3.97891	3.96464	3.94827	3.94603	3.99164	4.08654	4.19673	4.35097	4.46258	4.59035	4.68299	4.67334	4.66327	4.60218	4.52147	4.47218	4.42745	4.32984	4.28598	4.24127	4.14978	4.06774	4.03694	4.03746	4.12165	4.24657	4.37773	4.4845	4.596	4.66234	4.72004	4.73404	4.7632	4.76926	4.81029	4.85356	4.82631	4.79883	4.75737	4.71309	4.659	4.60806	4.5453	4.53609	4.59956	4.67074	4.76479	4.87201	4.89727	4.89787	4.88398	4.8518	4.80573	4.73004	4.61932	4.5778	4.54376	4.51916	4.49974	4.51852	4.56067	4.58277	4.62266	4.68413	4.67224	4.64535	4.61812	4.60107	4.58908	4.57614	4.56031	4.51805	4.51812	4.51528	4.54716	4.54806	4.55438	4.56198	4.61544	4.62066	4.62726	4.64011	4.64593	4.65046	4.65449	4.65707	4.64572	4.63541	4.60938	4.60475	4.60921	4.61807	4.62408	4.63679	4.61986	4.65326	4.67421	4.69169	4.71376	4.73153	4.7488	4.76307	4.77818	4.78833	4.7778	4.75157	4.66263	4.58934	4.50947	4.48193	4.44185	4.39264	4.37432	4.38803	4.35592	4.31642	4.24345	4.17446	4.17042	4.2023	4.22173	4.44976	4.37655	4.34795	4.32684	4.29518	4.26908	4.24782	4.21633	4.17522	4.12497	4.1068	4.07564	4.01887	3.95073	3.88348	3.81554	3.76153	3.74044	3.71661	3.7307	3.74178	3.74888	3.76302	3.84148	3.89712	4.09658	4.16414	4.21862	4.24923	4.27319	4.28775	4.28793	4.23815	4.15046	4.12263	4.04885	3.9943	3.97316	4.00044	4.06381	4.06057	4.11106	4.18545	4.25554	4.34864	4.43864	4.49891	4.5566	4.61324	4.66928	4.72123	4.76927	4.76182	4.73869	4.72466	4.68985	4.63462	4.62219	4.6174	4.59288	4.55153	4.527	4.52917	4.53973	4.56376	4.60518	4.66016	4.69466	4.67185	4.61289	4.56035	4.46367	4.46409	4.44744	4.41669	4.40319	4.36587	4.33939	4.30197	4.2191	4.15792	4.15781	4.2412	4.31267	4.42004	4.50819	4.61043	4.69814	4.75955	4.80134	4.82493	4.80844	4.7899	4.77817	4.72728	4.66459	4.57581	4.4737	4.44536	4.48914	4.51852	4.56632	4.64545	4.7216	4.78709	4.83062	4.8426	4.85009	4.86447	4.82917	4.78289	4.75927	4.71814	4.68456	4.66126	4.71862	4.80258	4.91122	5.00235	5.06214	5.19528	5.34076	5.42862	5.4666	5.46336	5.43715	5.35004	5.32112	5.26643	5.14726	5.09673	5.10033	5.10827	5.13874	5.19001	5.15489	5.12053	5.07494	4.97968	4.93091	4.89007	4.9158	4.95393	5.01999	5.11348	5.4262	5.65833	5.78067	5.90882	5.97865	6.03124	6.09242	6.15655	6.23149	6.30692	6.39506	6.47349	6.48988	6.48369	6.54173	6.58322	6.7202	6.86493	6.97873	7.14279	7.23415	7.33075	7.42694	7.62491	7.86465	8.10059	8.38864	8.67702	9.00199	9.4821	9.99064	10.3805	10.852	11.3702	11.9027	12.3725	12.894	13.5213	14.3577	15.4462	16.7817	18.3388	20.0862	23.008	25.7403	29.1113	33.0997	38.0478	43.4309	50.0025	58.9328	74.0656	89.7156	110.708	142.236	166.252	203.286	221.182	229.214	213.279	178.438	150.734	115.713	94.0002	78.675	63.3856	51.0521	42.5173	36.9209	32.6465	28.6544	25.8906	23.2096	21.187	18.755	17.167	15.8788	14.6687	13.7338	12.8384	12.1422	11.5816	11.1074	10.7147	10.3397	9.97365	9.6429	9.38877	9.00339	8.64073	8.36292	8.09716	7.86686	7.62326	7.3949	7.22284	7.06065	6.91534	6.77748	6.67027	6.57675	6.49443	6.41515	6.35451	6.29877	6.28053	6.27099	6.2634	6.25809	6.24466	6.2176	6.16035	6.0803	5.93117	5.81069	5.67396	5.56571	5.48265	5.42772	5.32882	5.18095	5.14226	5.08724	5.06127	5.06271	5.06459	5.04168	5.0591	5.07341	5.05394	5.04108	5.00251	4.94782	4.91499	4.8909	4.88358	4.88846	4.84662	4.85579	4.8656	4.84574	4.84126	4.80909	4.77657	4.768	4.75131	4.71756	4.7134	4.69659	4.65642	4.65013	4.65995	4.65158	4.63003	4.6075	4.59291	4.56594	4.56325	4.56165	4.57368	4.58085	4.56147	4.52966	4.51294	4.47649	4.42692	4.36624	4.30507	4.23706	2.80192	4.21967	4.32703	4.33849	4.3909	4.42555	4.40504	4.37285	4.34892	4.27381	4.19787	4.16307	4.10289	4.04519	3.96971	3.90729	3.84539	3.80406	3.78402	3.79705	3.82281	3.85726	3.87048	3.90608	4.01608	4.08085	4.17187	4.23156	4.27389	4.28609	4.27885	4.26617	4.22006	4.16031	4.09698	4.05427	3.99483	3.90052	3.81208	3.76767	3.69687	3.64484	3.65349	3.73068	3.81732	3.90255	3.93776	3.92762	3.85497	3.7876	3.74313	3.74895	3.79506	3.82338	3.80669	3.79361	3.8034	3.82357	3.83027	3.84465	3.84989	3.89737	3.95354	4.01789	4.05824	4.06694	4.08147	4.08827	4.10689	4.09374	4.06845	4.10258	4.11075	4.1199	4.17319	4.20767	4.23502	4.19681	4.1516	4.12478	4.08762	4.06516	4.03477	4.00663	3.98319	3.96421	3.94773	3.9332	3.92187	3.89891	3.91646	3.93656	3.96369	3.98496	3.99115	3.99249	3.98604	3.9624	3.94361	3.93668	3.91841	3.91077	3.90022	3.90758	3.9022	3.87763	3.86683	3.86652	3.9078	3.99095	4.05889	4.12244	4.19131	4.22235	4.21856	4.2138	4.21709	4.21956	4.22119	4.19561	4.18934	4.18288	4.16145	4.13243	4.0971	4.05567	4.06763	4.06745	4.11221	4.16197	4.21044	4.26891	4.30334	4.32288	4.31539	4.27424	4.3228	4.38326	4.41081	4.37828	4.33472	4.30291	4.26154	4.20251	4.135	4.10881	4.10788	4.14718	4.22579	4.2314	4.25933	4.29597	4.25404	4.23347	4.23433	4.18398	4.1267	4.04026	3.98374	3.94722	3.95749	3.93956	3.95439	3.95284	4.0064	4.08311	4.15602	4.27902	4.34491	4.38098	4.4297	4.44245	4.44461	4.39015	4.31006	4.23744	4.1701	4.11245	4.08812	4.07311	4.04777	4.04089	4.04641	4.10127	4.11967	4.14167	4.17447	4.19599	4.24032	4.28145	4.23947	4.23044	4.27999	4.31909	4.36613	4.42347	4.4805	4.52691	4.53573	4.51031	4.49799	4.45021	4.40073	4.35163	4.30013	4.2494	4.20913	4.15934	4.10807	4.10959	4.15102	4.17645	4.21893	4.25877	4.30399	4.35124	4.39597	4.38699	4.38748	4.39594	4.35573	4.24061	4.18654	4.17307	4.12363	4.07353	4.07104	4.09236	4.10855	4.12674	4.14672	4.12463	4.08345	4.07922	4.09095	4.1253	4.13163	4.16872	4.1963	4.23088	4.25741	4.29575	4.33566	4.3591	4.35689	4.3127	4.28724	4.26625	4.22763	4.20931	4.19981	4.19618	4.1982	4.20361	4.25433	4.32504	4.34531	4.33284	4.29935	4.28358	4.23395	4.19066	4.18309	4.20434	4.22486	4.24555	4.24358	4.24315	4.25258	4.24454	4.25852	4.28742	4.30073	4.33411	4.35189	4.33825	4.32037	4.30561	4.2765	4.25111	4.23277	4.21404	4.18775	4.18308	4.17644	4.18643	4.20233	4.20923	4.22215	4.22386	4.19484	4.17295	4.16558	4.17745	4.16556	4.13582	4.14797	4.15494	4.17258	4.18721	4.19076	4.17812	4.17688	4.20941	4.24212	4.22699	4.21274	4.20666	4.1677	4.20504	4.21614	4.20516	4.21569	4.23904	4.26289	4.25741	4.23697	4.20284	4.22141	4.21873	4.25704	4.24582	4.22481	4.17843	4.14631	4.12718	4.10866	4.1169	4.12185	4.14011	4.15624	4.13108	4.10675	4.07121	3.99022	3.95151	3.91689	3.94879	4.02866	4.07262	4.11955	4.20035	4.16768	4.15181	4.19158	4.20267	4.21503	4.22933	4.24386	4.2563	4.26962	4.23461	4.26248	4.27039	4.27587	4.285	4.29143	4.30345	4.30048	4.27802	3.97352	3.90414	3.89465	4.02753	4.09889	4.12431	4.10046	4.14967	4.20111	4.25109	4.30142	4.35731	4.42261	4.42428	4.42159	4.42019	4.4174	4.41219	4.41368	4.40735	4.38877	4.38415	4.36894	4.3096	4.25252	4.13534	4.07757	4.07217	4.08558	4.13105	4.18836	4.1557	4.06517	3.99126	3.93281	3.6268	3.69143	3.81725	4.36364	4.32296	4.28809	4.24711	4.1636	3.95619	3.86204	3.73865
-20	20	5.49023	5.4375	5.39677	5.23363	5.07856	4.95334	4.85768	4.82031	4.81246	4.80411	4.80451	4.79945	4.81477	4.84089	4.86349	4.89175	4.90907	4.93549	4.93628	4.9256	4.91607	4.90434	4.88948	4.87036	4.87396	4.85658	4.81063	4.82346	4.84048	4.8576	4.90804	4.93638	4.97228	5.00386	5.04824	5.07819	5.09551	5.10633	5.11936	5.1111	5.10189	5.09695	5.09942	5.09351	5.09245	5.11119	5.11662	5.11436	5.10464	5.09432	5.07957	5.07242	4.99264	4.91381	4.82726	4.74761	4.66294	4.59405	4.51992	4.38006	4.3556	4.3363	4.3692	4.38737	4.40801	4.45808	4.49583	4.52952	4.56872	4.6073	4.64342	4.68119	4.71386	4.73124	4.75224	4.76723	4.78306	4.78191	4.79109	4.80031	4.80532	4.81186	4.81493	4.81887	4.82896	4.82218	4.81611	4.80748	4.79633	4.7853	4.77031	4.75612	4.74215	4.72939	4.68874	4.68954	4.68954	4.69162	4.69834	4.70466	4.73004	4.77647	4.75902	4.75351	4.74262	4.74382	4.72987	4.74843	4.77368	4.86124	4.91272	4.93118	4.96182	4.93188	4.89949	4.86568	4.83166	4.79831	4.76689	4.73781	4.70708	4.6813	4.65263	4.63103	4.60575	4.58863	4.56723	4.5528	4.5376	4.52865	4.51776	4.52962	4.53459	4.55826	4.56596	4.57968	4.59179	4.61032	4.62634	4.62096	4.61185	4.61063	4.6065	4.60574	4.60701	4.60701	4.61232	4.6187	4.63546	4.67231	4.69771	4.72805	4.75751	4.79535	4.83668	4.87045	4.90213	4.93103	4.94647	4.95586	4.90669	4.80262	4.70727	4.59949	4.51524	4.4334	4.37438	4.41098	4.45824	4.50819	4.55727	4.61662	4.69051	4.74965	4.81618	4.86938	4.94817	4.9645	4.98497	4.96406	4.92963	4.88158	4.86039	4.83587	4.81145	4.82437	4.81466	4.82503	4.8223	4.82713	4.80522	4.79001	4.77229	4.79098	4.78398	4.78542	4.77751	4.79311	4.7644	4.7226	4.67536	4.62049	4.57411	4.55756	4.51709	4.48237	4.44756	4.36389	4.37508	4.39032	4.41013	4.43326	4.46115	4.58283	4.64918	4.7387	4.78537	4.82393	4.86024	4.89516	4.92009	4.89807	4.83397	4.75674	4.68323	4.63282	4.62295	4.60447	4.60792	4.62257	4.65374	4.67859	4.71521	4.75076	4.78906	4.82693	4.86564	4.89954	4.92634	4.94183	4.96079	4.98117	4.98804	4.98838	4.95175	4.9133	4.86934	4.82748	4.80437	4.78023	4.75168	4.6808	4.70485	4.72214	4.74219	4.76713	4.80554	4.84927	4.89206	4.93026	4.96919	5.00825	5.02148	5.01258	5.00219	4.99581	4.98939	4.98226	4.97331	4.94637	4.9197	4.86707	4.81716	4.77918	4.74028	4.69582	4.66293	4.62854	4.58959	4.54028	4.5337	4.54789	4.60858	4.65772	4.70419	4.75309	4.79555	4.85271	4.87837	4.89105	4.89668	4.8594	4.82853	4.79174	4.73814	4.69148	4.63402	4.57943	4.52698	4.47591	4.43299	4.3759	4.34657	4.31337	4.29153	4.26733	4.31844	4.30937	4.32233	4.30309	4.28236	4.25553	4.18621	4.15796	4.11003	4.10211	4.09974	4.10229	4.14293	4.1865	4.21255	4.2398	4.23882	4.20897	4.19537	4.18653	4.17774	4.18171	4.19684	4.19738	4.21636	4.23848	4.26359	4.29085	4.31747	4.34246	4.37051	4.39796	4.42642	4.45537	4.4832	4.51269	4.53881	4.56632	4.56661	4.57393	4.5815	4.59067	4.59905	4.60561	4.55772	4.49351	4.42698	4.35497	4.29057	4.22658	4.23172	4.23912	4.42694	4.48373	4.47554	4.45078	4.42333	4.38926	4.37241	4.37534	4.38489	4.39595	4.47179	4.45161	4.46551	4.46782	4.48316	4.49131	4.50257	4.51569	4.53617	4.56646	4.58313	4.61352	4.64525	4.65796	4.67761	4.7008	4.71966	4.71564	4.71187	4.71977	4.72067	4.72984	4.74736	4.75765	4.76159	4.76057	4.7604	4.66949	4.54497	4.37203	4.20702	4.05749	4.21268	4.35452	4.53839	4.55729	4.51073	4.5144	4.53539	4.58211	4.62926	4.69524	4.77536	4.90641	4.9868	5.0539	5.09659	5.09075	5.03105	4.94817	4.85677	4.82728	4.81692	4.88122	4.94478	4.99121	5.02367	5.05417	5.0932	5.13186	5.19213	5.20456	5.2228	5.21514	5.14788	5.09122	5.0506	5.02682	5.02323	5.03486	5.06361	5.15769	5.21846	5.28273	5.33714	5.34851	5.37362	5.44253	5.5188	5.59901	5.65991	5.72047	5.78311	5.81691	5.87943	5.92562	5.96431	6.02976	6.0741	6.13134	6.19741	6.278	6.36842	6.47347	6.58895	6.69637	6.82309	7.0139	7.13999	7.24655	7.33343	7.47154	7.64521	7.79555	8.05742	8.37465	8.72119	9.12487	9.31084	9.59125	9.84093	10.1475	10.4857	10.8561	11.2496	11.7328	12.389	13.3024	14.4623	15.732	17.5483	19.5765	21.05	22.8179	24.9111	26.6564	30.1908	34.4363	38.8041	45.4222	54.6347	68.0959	82.3523	99.7704	118.502	152.346	191.845	222.02	238.119	240.19	222.366	184.774	156.925	122.131	97.862	83.202	62.8892	57.7021	46.6443	38.6868	33.2333	29.7802	27.0514	25.0107	22.5832	20.3756	18.4064	16.9874	15.7436	14.6554	13.7615	12.9528	12.2577	11.3231	10.7672	10.2931	9.90081	9.58802	9.35362	9.19407	9.07183	8.95864	8.80612	8.58395	8.41594	8.08084	8.02886	7.86358	7.57757	7.31223	7.08435	6.8963	6.73029	6.55846	6.41284	6.29367	6.19725	6.12919	6.0683	6.12272	6.16961	6.20001	6.20423	6.11325	6.00269	5.91888	5.8713	5.82925	5.78601	5.70122	5.59903	5.47659	5.42104	5.45464	5.42118	5.37744	5.3303	5.30467	5.29493	5.29178	5.26764	5.28689	5.28254	5.27633	5.26724	5.25796	5.24297	5.23128	5.22275	5.13905	5.03531	4.95063	4.891	4.83473	4.78546	4.73336	4.67465	4.64041	4.6111	4.5532	4.52278	4.49404	4.48295	4.47774	4.45412	4.47524	4.502	4.5437	4.59106	4.64327	4.69386	4.74136	4.78378	4.8122	4.79376	4.77393	4.75366	4.72368	4.69542	4.6636	4.60578	4.53974	4.47674	4.42871	4.38626	4.35961	4.38504	4.40897	4.43432	4.42162	4.42764	4.4456	4.46733	4.49462	4.52473	4.55725	4.59117	4.62454	4.62616	4.59058	4.5649	4.52806	4.44205	4.35518	4.30546	4.27033	4.15935	4.06329	4.05786	4.17927	4.21292	4.2587	4.32563	4.40986	4.46927	4.51647	4.4755	4.43541	4.3896	4.34629	4.29658	4.25045	4.20091	4.15657	4.11388	4.10511	4.21478	4.22993	4.14849	4.13757	4.18196	4.26579	4.32875	4.33155	4.32874	4.32928	4.32814	4.30636	4.28408	4.24073	4.25033	4.24064	4.23354	4.19926	4.21468	4.22982	4.24933	4.27034	4.29463	4.32043	4.34928	4.37857	4.43645	4.47401	4.50889	4.53576	4.49206	4.42618	4.35918	4.29504	4.23696	4.18084	4.12956	4.12029	4.09976	4.1015	4.11447	4.11202	4.10456	4.10828	4.11446	4.12503	4.14476	4.15743	4.13698	4.11901	4.18931	4.21124	4.23161	4.25261	4.27267	4.29275	4.30852	4.30872	4.31191	4.27425	4.27506	4.2637	4.13988	4.0466	3.98217	4.16229	4.27762	4.31386	4.27957	4.30852	4.21818	4.00623	4.00484	4.00188	4.00556	4.01376	4.01995	4.06501	4.11863	4.14421	4.11424	4.09725	4.09198	4.08354	4.09238	4.10469	4.09414	4.08945	4.09101	4.14683	4.1785	4.20244	4.24135	4.25421	4.26475	4.27214	4.29214	4.28488	4.28143	4.27542	4.27047	4.26694	4.25289	4.24707	4.23997	4.23572	4.23584	4.2041	4.21711	4.22663	4.24035	4.25528	4.27139	4.25794	4.26155	4.27341	4.30895	4.34879	4.38425	4.43462	4.47396	4.52209	4.55961	4.59207	4.61484	4.6197	4.62641	4.61639	4.5997	4.59098	4.58052	4.57057	4.54071	4.50974	4.48933	4.4396	4.39418	4.36105	4.36112	4.37749	4.3905	4.41413	4.42435	4.43896	4.45378	4.4537	4.44999	4.43935	4.43852	4.44319	4.44519	4.45963	4.4613	4.46866	4.44453	4.41869	4.39102	4.36397	4.33749	4.3154	4.29167	4.26008	4.22287	4.18118	4.16077	4.15447	4.15214	4.14212	4.13094	4.03973	3.92898	3.83	3.81945	3.88704	3.87043	3.85889	3.8533	3.85433	3.86109	3.8754	3.89551	3.91718	3.95039	4.01149	4.04569	4.12412	4.20799	4.27387	4.24333	4.18956	4.15017	4.19426	4.27607	4.3568	4.38428	4.38452	4.37281	4.34579	4.31679	4.28937	4.25736	4.22657	4.19721	4.15038	4.06456	3.99609	4.01227	4.03461	4.05834	4.08878	4.12476	4.1663	4.21255	4.25589	4.28223	4.30815	4.33693	4.36345	4.39494	4.40264	4.4093	4.4006	4.38975	4.37648	4.36443	4.33911	4.32721	4.31133	4.28536	4.26237	4.24438	4.21819	4.21411	4.21487	4.2205	4.22913	4.24265	4.25748	4.27646	4.29528	4.31754	4.3331	4.35129	4.36388	4.38579	4.40589	4.42725	4.44787	4.41834	4.39373	4.3423	4.3058	4.29363	4.29047	4.28273	4.3066	4.32039	4.34309	4.35785	4.37946	4.40529	4.42137	4.41026	4.38346	4.35723	4.33205	4.31229	4.29253	4.28821	4.28643	4.28475	4.26668	4.25294	4.24106	4.22342	4.22394	4.23328	4.23858	4.2524	4.28713	4.3128	4.33919	4.35843	4.37201	4.3853	4.40107	4.41366	4.43865	4.44882	4.43787	4.3909	4.35926	4.29899	4.26368	4.23336	4.21547	4.19052	4.17875	4.18924	4.20251	4.22253	4.24269	4.30346	4.33557	4.3681	4.3832	4.37373	4.36529	4.35474	4.34473	4.33325	4.32193	4.3099	4.29677	4.28542	4.27179	4.26144	4.24505	4.23754	4.22619	4.20707	4.20219	4.20484	4.1989	4.19009	4.18018	4.20856	4.21659	4.22853	4.24193	4.26038	4.27836	4.29786	4.3134	4.33308	4.34898	4.35399	4.35293	4.2779	4.23485	4.17633	4.12808	4.08216	4.03919	3.99561	3.96003	3.92078	3.89717	3.95086	3.97727	3.94995	3.9306	3.92128	3.91541	3.98317	4.03081	4.14826	4.28914	4.16381	4.12178
0	-20	4.94445	4.75393	4.665	4.53978	4.48791	4.47172	4.4172	4.49947	4.54527	4.57757	4.58248	4.55774	4.51548	4.45196	4.35851	4.27716	4.20306	4.17059	4.16406	4.21111	4.23494	4.28399	4.35223	4.41761	4.49389	4.56309	4.61216	4.65862	4.6933	4.76211	4.76945	4.72127	4.65044	4.54904	4.40859	4.28262	4.21016	4.1775	4.21822	4.30875	4.46173	4.69358	4.85465	4.87095	4.88311	4.9404	4.86583	4.77573	4.68308	4.57961	4.47944	4.38774	4.33662	4.21566	4.06484	3.98225	3.89833	4.53535	4.78636	4.81263	4.36926	4.24127	4.28454	4.65388	4.71011	4.74329	4.73856	4.74336	4.75917	4.74447	4.73843	4.73593	4.74946	4.75569	4.78367	4.78924	4.78993	4.76283	4.73607	4.71452	4.68145	4.63622	4.59175	4.53466	4.49135	4.38992	4.38631	4.38063	4.33683	4.30018	4.2881	4.25737	4.25085	4.246	4.2345	4.23561	4.27697	4.28356	4.29296	4.34902	4.41905	4.50295	4.62116	4.63085	4.56676	4.54388	4.51962	4.50213	4.48297	4.46584	4.45202	4.41456	4.39744	4.3764	4.34313	4.22477	4.21742	4.22782	4.26709	4.30384	4.35858	4.40338	4.37689	4.2996	4.19199	4.05643	4.03676	4.04715	4.04508	4.0162	4.0139	4.02681	4.06319	4.08528	4.07587	4.05488	4.03523	4.02117	4.01263	4.01591	4.03839	4.07713	4.15308	4.25049	4.33703	4.43542	4.53392	4.62944	4.72835	4.76431	4.77857	4.77779	4.756	4.72913	4.69998	4.61537	4.48441	4.39429	4.28375	4.19751	4.14927	4.10011	4.11485	4.11915	4.13731	4.16193	4.18734	4.21454	4.24105	4.27316	4.299	4.33243	4.36376	4.39778	4.42801	4.44316	4.46772	4.48872	4.51029	4.51252	4.49532	4.44756	4.42326	4.40962	4.41093	4.42293	4.42962	4.44561	4.46904	4.5138	4.55402	4.58264	4.63676	4.65528	4.66436	4.67432	4.71535	4.7011	4.69329	4.67601	4.65827	4.63881	4.60835	4.5894	4.54221	4.50391	4.47764	4.43425	4.38618	4.37095	4.3689	4.3789	4.44376	4.47588	4.53104	4.56677	4.60063	4.64647	4.69211	4.67557	4.6722	4.66207	4.65628	4.65091	4.64991	4.64345	4.64699	4.64362	4.64168	4.65551	4.64183	4.64191	4.6317	4.61663	4.60024	4.58211	4.56073	4.51468	4.47501	4.4212	4.37485	4.30461	4.25672	4.21057	4.156	4.10975	4.04665	4.02228	4.00425	3.99983	4.02833	4.07914	4.13045	4.18421	4.20663	4.19961	4.19689	4.19586	4.19761	4.22529	4.23794	4.24338	4.24764	4.25689	4.23876	4.24059	4.27252	4.30416	4.31673	4.32896	4.29934	4.25213	4.21615	4.15517	4.11335	4.09046	4.06312	4.04555	4.06395	4.05597	4.08331	4.13077	4.21037	4.32581	4.3758	4.37354	4.3573	4.33731	4.31672	4.29833	4.27667	4.2117	4.11933	4.04497	3.99768	3.97434	3.93226	3.91769	3.92096	3.91863	3.92438	3.95009	3.96376	3.9948	4.00494	4.02305	4.00751	4.01582	4.0324	4.06523	4.09935	4.10774	4.12845	4.14284	4.12245	4.07435	4.01019	3.96053	3.92216	3.88518	3.86797	3.87596	3.85799	3.84889	3.82943	3.82528	3.84473	3.88723	3.95585	4.00392	4.0223	4.01608	4.01138	4.00871	4.0079	4.00905	4.01209	4.01616	4.02322	4.02677	4.03909	3.99938	3.94651	3.85969	3.7918	3.73703	3.72399	3.72888	3.78938	3.8287	3.92687	4.00867	4.11344	4.20771	4.36977	4.42903	4.42719	4.35091	4.32229	4.27088	4.3008	4.30033	4.23187	4.14947	4.11948	4.03914	3.97177	3.90791	3.90022	3.87558	3.94435	4.07842	4.20068	4.35156	4.44292	4.56097	4.59962	4.59295	4.56339	4.52936	4.49236	4.46616	4.39726	4.35297	4.31342	4.26933	4.2667	4.27962	4.30796	4.38698	4.43602	4.45125	4.48991	4.53151	4.56449	4.59441	4.62568	4.64204	4.63664	4.58903	4.51454	4.40214	4.31452	4.25731	4.20053	4.19623	4.1914	4.21381	4.24257	4.29218	4.35816	4.45412	4.56896	4.61283	4.65244	4.65466	4.63179	4.58929	4.53728	4.51614	4.48357	4.50713	4.51926	4.53764	4.46769	4.35058	4.2368	4.13826	4.93551	5.15459	5.09955	5.10516	5.08795	5.06098	5.04924	5.04298	5.03738	4.9682	4.9783	4.98378	4.99214	5.01605	5.02967	5.05127	5.02865	5.05463	5.09332	5.11847	5.10937	5.11336	5.12047	5.16547	5.22401	5.29281	5.38503	5.48246	5.55594	5.6256	5.71677	5.80419	5.91233	6.02517	6.15005	6.27306	6.40567	6.56436	6.71378	6.88323	7.05757	7.22577	7.36925	7.49102	7.61235	7.70144	7.82441	7.94609	8.07373	8.23595	8.45268	8.68683	9.07914	9.43753	9.86398	10.3356	10.8993	11.7029	12.5666	13.3158	14.3339	15.1191	17.3447	20.4514	22.1608	24.1294	26.7554	29.9664	34.0048	40.3957	47.8012	54.9112	64.5247	80.4856	102.589	126.184	159.647	182.706	208.363	211.683	197.768	176.007	140.476	110.955	93.0125	74.4839	64.5625	50.2507	42.5724	36.5216	31.9334	27.8738	24.8483	21.725	19.6822	18.159	16.924	15.7994	14.8336	13.9624	12.9891	12.2486	11.5528	10.911	10.3398	9.83139	9.41616	9.07285	8.75506	8.41588	8.11487	7.82236	7.57718	7.38429	7.21057	7.06685	6.98212	6.88689	6.81426	6.70323	6.60637	6.4971	6.37971	6.24097	6.12154	6.01365	5.93904	5.83688	5.63849	5.56676	5.53237	5.51137	5.52037	5.5089	5.50093	5.51598	5.55642	5.58174	5.61045	5.56918	5.53787	5.48547	5.41752	5.35453	5.26526	5.13713	5.11097	5.06147	4.98566	4.93423	4.85923	4.81512	4.75911	4.72844	4.7332	4.67239	4.62986	4.60054	4.55853	4.5253	4.49631	4.46637	4.44424	4.40663	4.39209	4.38128	4.37853	4.37341	4.36069	4.35619	4.33641	4.34844	4.39047	4.42659	4.44936	4.47558	4.50084	4.52941	4.53741	4.51568	4.50013	4.49089	4.44061	4.36851	4.26553	4.16135	4.1051	4.08378	4.08296	4.12571	4.20746	4.28622	4.35094	4.39971	4.42454	4.41715	4.44162	4.43112	4.42418	4.37786	4.30307	4.2227	4.15738	4.07184	4.02437	3.97622	3.94049	3.90768	4.03792	4.07613	4.12577	4.13653	4.14731	4.1578	4.18037	4.2083	4.17947	4.16483	4.13014	4.10046	4.09131	4.06418	4.13152	4.15153	4.15702	4.10479	4.03657	4.01448	4.02481	4.05454	4.0895	4.10549	4.12457	4.1371	4.1155	4.09782	4.08756	4.07045	4.05694	4.03282	3.96291	3.9201	3.88547	3.90648	3.90664	3.89952	3.93921	3.95932	3.98717	4.02499	4.05804	4.08899	4.11102	4.11208	4.05884	3.99191	3.91861	3.86166	3.82932	3.82198	3.82884	3.83228	3.80979	3.7949	3.8223	3.8193	3.77354	3.72999	3.69544	3.68057	3.66633	3.65832	3.65981	3.67135	3.68188	3.68496	3.69702	3.70093	3.71241	3.71508	3.72573	3.72993	3.74046	3.73894	3.74906	3.75874	3.75468	3.77113	3.76031	3.7868	3.82574	3.86153	3.8366	3.78824	3.78555	3.78943	3.80448	3.79872	3.76338	3.76191	3.75499	3.77155	3.74342	3.66893	3.6672	3.62476	3.61378	3.60266	3.5479	3.5489	3.54959	3.56388	3.62029	3.68334	3.70057	3.70971	3.72724	3.74038	3.75981	3.77583	3.79582	3.81383	3.83339	3.85271	3.8707	3.8909	3.90541	3.88199	3.87562	3.89576	3.92973	3.95212	3.96427	3.98275	3.99271	3.98925	3.96511	3.94211	3.90611	3.89937	3.89169	3.87978	3.87775	3.85896	3.86052	3.88741	3.94807	4.01507	4.1153	4.19478	4.28702	4.34948	4.35755	4.32295	4.26946	4.18479	4.10946	4.01562	3.93304	3.87088	3.83071	3.80567	3.82751	3.85852	3.90611	3.98603	4.02618	4.07887	4.10396	4.15328	4.2058	4.24617	4.27242	4.28619	4.30831	4.29437	4.24376	4.17513	4.13932	4.11972	4.11317	4.11356	4.15304	4.16458	4.18563	4.18257	4.17143	4.18127	4.19255	4.20749	4.20942	4.20852	4.22279	4.24577	4.25819	4.26038	4.26601	4.25057	4.2268	4.21428	4.18163	4.14628	4.12933	4.16045	4.16042	4.17323	4.16363	4.15188	4.13754	4.09596	4.08467	3.96515	4.10789	4.1332	4.13183	4.10271	4.09909	4.09441	4.12416	4.15744	4.0853	4.08448	4.16813	4.16371	4.1802	4.21284	4.21292	4.20388	4.19723	4.18134	4.1519	4.12205	4.10974	4.07235	4.06073	4.06435	4.05215	4.03744	4.00483	3.98425	3.97894	3.98706	3.99283	3.9923	4.00376	4.00584	4.04449	4.06836	4.09448	4.11829	4.13228	4.1362	4.15662	4.14948	4.12711	4.09737	4.04626	4.01044	4.02765	4.08938	4.17094	4.25309	4.27815	4.21951	4.13938	4.10094	4.04078	4.00312	3.96932	3.94001	3.9187	3.89747	3.88477	3.86709	3.91726	3.91975	3.93001	3.93593	3.94342	3.94794	3.95246	3.92092	3.89097	3.81509	3.7853	3.76504	3.76667	3.77078	3.79147	3.81141	3.87347	3.90417	3.91723	3.93354	3.96547	4.00284	4.02369	4.03431	4.02946	4.03555	4.0356	3.82836	4.05109	4.07514	4.04087	4.11986	4.14156	4.16703	4.19517	4.22485	4.2391	4.24562	4.23345	4.24977	4.21974	4.21319	4.17469	4.04801	3.95708	3.85837	3.75533	3.68112	3.6315	3.54177	3.53101	3.59065	3.65416	3.71607	3.77559	3.78921	3.82382	3.89233	3.96177	4.05335	4.11973	4.12182	4.19536	4.26685	4.33121	4.39294	4.42204	4.40798	4.40818	4.39617	4.36636	4.35273	4.33177	4.28157	4.23471	4.18472	4.14519	4.10854	4.09907	4.06531	4.05716	4.04971	4.03168	4.00499	3.94469	3.81903	3.8342	3.86634	3.93369	3.95961	3.97395	4.00711	4.02538	4.01413	4.03719	3.97059	4.0224	4.04311	4.03852	4.03059	4.0254	4.02482	4.0247	4.03603	4.02994	4.03313	4.03669	4.03103	4.01772	4.00366	3.98934	3.93276	3.89624	3.84278	3.78875	3.73116	3.67871	3.62058	3.56824	3.51028	3.60937	3.64133
0	0	3.03657	3.43287	3.73201	4.05953	4.08235	4.05271	4.01445	3.94772	3.94114	3.94331	3.95372	3.96591	3.98771	4.00632	4.03536	4.03833	4.01569	4.01682	4.01837	4.05364	4.06447	4.05626	4.0455	4.03938	4.02743	4.01865	3.99426	3.98405	3.96541	3.94237	3.94393	3.95765	3.96944	3.98107	3.99787	4.03814	4.06451	4.09239	4.11015	4.09925	4.08512	4.06988	4.0379	4.00266	3.97075	3.91606	3.86277	3.84414	3.82664	3.77484	3.73357	3.67442	3.65244	3.68028	3.72479	3.77511	3.82343	3.94602	3.97548	3.99202	4.0037	4.01399	3.99025	3.95973	3.93431	3.91482	3.88778	3.86617	3.84706	3.82628	3.81073	3.79194	3.78234	3.77372	3.76803	3.75584	3.75429	3.74567	3.73592	3.72838	3.71661	3.71016	3.7022	3.69713	3.69426	3.69061	3.69234	3.68984	3.69266	3.69094	3.68938	3.6888	3.682	3.67297	3.67512	3.6753	3.68098	3.68399	3.69207	3.69867	3.71049	3.73424	3.74137	3.74655	3.74706	3.74826	3.74543	3.74033	3.73108	3.69968	3.69433	3.63678	3.62623	3.61279	3.60727	3.63009	3.65397	3.65459	3.65771	3.66335	3.66343	3.66569	3.66423	3.66551	3.66305	3.6546	3.64807	3.61481	3.6069	3.61121	3.61914	3.63004	3.64476	3.65976	3.68006	3.69821	3.69288	3.68624	3.68885	3.68964	3.70177	3.71208	3.72961	3.73841	3.74984	3.75864	3.77029	3.78114	3.79158	3.80409	3.81346	3.82741	3.81768	3.82934	3.82421	3.79291	3.76027	3.74202	3.72561	3.69876	3.69899	3.68794	3.69437	3.70664	3.70725	3.73742	3.81075	3.8586	3.86677	3.8567	3.84613	3.81435	3.81228	3.81301	3.81824	3.82405	3.83208	3.84517	3.85639	3.87064	3.88514	3.90356	3.92165	3.94406	3.96824	4.03048	4.05677	4.08402	4.10607	4.13102	4.14815	4.16984	4.18219	4.19955	4.19822	4.20098	4.21779	4.17487	4.12136	4.06831	4.04664	4.03274	4.03807	4.0585	4.10144	4.12048	4.10707	4.09618	4.08013	4.06695	4.05397	4.04852	4.01952	3.98418	3.85295	3.78472	3.79028	3.80558	3.77699	3.7364	3.72775	3.70197	3.70778	3.72186	3.73887	3.7611	3.88042	3.92926	3.9975	4.05271	4.10502	4.15762	4.18644	4.18762	4.17969	4.1596	4.25369	4.26467	4.25624	4.19201	4.12295	4.07406	4.02148	3.90208	3.84853	3.86338	3.87943	3.89913	3.92174	3.86953	3.81411	3.76936	3.72895	3.69264	3.67335	3.70788	3.8237	3.9181	3.90951	3.94036	3.88813	3.86398	3.82791	3.81271	3.76487	3.74179	3.71254	3.70592	3.70153	3.73855	3.78225	3.84483	3.97221	3.96749	3.98776	4.03414	4.0472	4.07912	4.0991	4.17259	4.18548	4.17487	4.17076	4.13276	4.12761	4.11342	4.16442	4.14969	4.13221	4.11802	4.10029	4.085	4.08488	4.06121	4.04996	4.00379	3.9395	3.89185	3.85363	3.82787	3.80607	3.78336	3.79418	3.79702	3.81053	3.80571	3.80787	3.79475	3.78804	3.77941	3.77745	3.77277	3.77335	3.77176	3.77496	3.77689	3.76265	3.75502	3.75387	3.75651	3.7621	3.79285	3.81906	3.84583	3.85612	3.86149	3.84431	3.82438	3.8031	3.79063	3.80734	3.79531	3.7699	3.74786	3.70593	3.6737	3.68971	3.70033	3.75092	3.7505	3.77687	3.80977	3.80259	3.79748	3.79058	3.78477	3.77811	3.7711	3.76478	3.75685	3.74876	3.74124	3.74033	3.7377	3.74173	3.74385	3.7526	3.73593	3.75726	3.77698	3.80216	3.82612	3.85436	3.88267	3.91299	3.94384	3.97486	3.99971	3.95005	3.94375	3.923	3.92178	3.97473	4.08063	4.17332	4.22706	4.20935	4.18692	4.10643	4.05677	3.97249	3.7288	3.72535	3.81046	3.76167	3.71982	3.66953	3.64726	3.63868	3.62625	3.70604	3.73546	3.77025	3.80078	3.83577	3.54234	3.69545	3.68181	3.76304	3.83593	3.87603	3.91873	3.93645	3.9835	3.9608	3.94358	3.95188	3.96266	3.97316	3.98455	3.98375	3.9639	3.92302	3.86206	3.79494	3.80226	3.8103	3.82712	3.95731	4.01324	4.10744	4.18642	4.25521	4.3038	4.36132	4.37253	4.38178	4.35543	4.29242	4.2338	4.16467	4.07015	3.98995	3.98563	3.95242	3.90204	3.8655	3.8279	3.88167	3.98381	4.02658	4.06952	4.11059	4.16456	4.20505	4.25469	4.30303	4.35554	4.42129	4.49916	4.50817	4.55685	4.58081	4.56603	4.56833	4.5765	4.62198	4.67605	4.772	4.84479	4.93472	4.99451	5.04482	5.15804	5.24592	5.32487	5.40606	5.41783	5.32468	5.30584	5.35619	5.39606	5.4657	5.55796	5.68072	5.83367	6.02084	6.17591	6.37426	6.57829	6.8066	6.96632	7.27923	7.48334	7.84345	8.19103	8.43826	8.9007	9.2464	9.80171	10.2879	10.9924	11.7397	13.0451	14.4495	16.1409	18.3605	21.101	24.3035	27.5481	34.4962	42.7869	52.2875	62.1265	73.2622	91.0867	95.5988	102.31	101.496	81.2303	74.6654	54.8257	45.0147	37.3452	31.5554	27.1923	22.9395	19.7245	17.0049	14.9856	13.3544	12.5384	12.031	11.0955	10.3222	9.72191	9.13675	8.44294	7.95545	7.52423	7.17841	6.86291	6.63055	6.43363	6.22316	5.96938	5.77302	5.60532	5.44924	5.33053	5.24807	5.21466	5.18855	5.15372	5.12445	5.13108	5.12581	5.05533	4.98504	4.92233	4.85837	4.80081	4.73308	4.69185	4.66534	4.62311	4.58263	4.55431	4.51278	4.47015	4.42587	4.39218	4.34028	4.32458	4.30838	4.29848	4.29641	4.3316	4.34641	4.37241	4.39218	4.41339	4.41818	4.43661	4.43124	4.43855	4.42578	4.42282	4.41702	4.41441	4.411	4.41203	4.41178	4.42059	4.41672	4.41219	4.40968	4.40446	4.39539	4.36308	4.30487	4.22558	4.19826	4.19458	4.21667	4.26097	4.31339	4.28964	4.24393	4.2408	4.21562	4.21516	4.23205	4.25581	4.24418	4.23509	4.21727	4.19455	4.17506	4.14609	4.12515	4.10349	4.08286	4.06213	4.03972	4.01915	4.00451	3.96488	3.96659	3.96592	3.90975	3.82742	3.73835	3.6908	3.69232	3.70253	3.72276	3.6394	3.4938	3.37942	3.45258	3.48643	3.52778	3.57889	3.61897	3.5437	3.50016	3.47491	3.46178	3.4854	3.57669	3.66972	3.76997	3.87378	3.90712	3.94302	3.9081	3.86381	3.82287	3.7913	3.76099	3.72169	3.68707	3.6687	3.64331	3.64613	3.66423	3.61729	3.60175	3.58687	3.6071	3.62159	3.64049	3.6625	3.68393	3.66966	3.64681	3.63163	3.59807	3.5636	3.50664	3.47778	3.47403	3.44923	3.46406	3.47045	3.44707	3.42806	3.68991	3.84851	3.82975	3.84255	3.78128	3.74693	3.72824	3.70239	3.66227	3.60388	3.5886	3.61818	3.64218	3.66428	3.65226	3.67016	3.68963	3.71317	3.74768	3.79488	3.85955	3.90646	3.95739	3.98311	3.97628	3.93871	3.89546	3.84444	3.79169	3.74099	3.68538	3.63562	3.58818	3.54081	3.49988	3.45833	3.43951	3.4091	3.38386	3.35521	3.32617	3.31072	3.31939	3.33701	3.35482	3.38793	3.41389	3.44903	3.48139	3.52255	3.58549	3.63724	3.66944	3.69587	3.71548	3.74517	3.75849	3.77094	3.79152	3.78243	3.77991	3.77463	3.77349	3.77224	3.7974	3.80852	3.81332	3.81136	3.80982	3.80962	3.8166	3.81071	3.80296	3.79059	3.77497	3.73155	3.70596	3.67645	3.64759	3.62478	3.63907	3.6535	3.6773	3.7034	3.71126	3.71196	3.64211	3.60579	3.6327	3.58598	3.48334	3.43295	3.42167	3.4236	3.40878	3.44408	3.49239	3.58051	3.68284	3.73408	3.73217	3.73037	3.74008	3.73306	3.75373	3.73227	3.713	3.68893	3.66288	3.63402	3.60566	3.582	3.54287	3.55731	3.57361	3.59966	3.63321	3.78011	3.8173	3.828	3.85025	3.8683	3.91601	3.94694	3.94598	3.95088	3.945	3.96663	3.95447	3.94341	3.91362	3.90514	3.90392	3.88738	3.9005	3.90547	3.9082	3.91195	3.94626	3.9769	3.98597	4.00503	4.01548	4.0443	4.04194	3.9699	3.89382	3.82183	3.78051	3.7612	3.73679	3.81615	3.8753	3.93808	4.01369	4.00131	3.98528	3.9766	3.97871	3.93405	3.89609	3.86719	3.85733	3.85451	3.85151	3.83256	3.78779	3.7385	3.70702	3.70172	3.64423	3.55343	3.50375	3.42074	3.5086	3.53021	3.56865	3.56215	3.63397	3.67219	3.65065	3.4272	3.64129	3.85359	3.88418	3.82313	3.90123	3.90252	3.73322	3.66702	3.64952	3.7005	3.79242	3.82158	3.82076	3.80986	3.79916	3.79702	3.78723	3.77355	3.76421	3.7608	3.75804	3.75968	3.78177	3.82899	3.85387	3.86838	3.88495	3.89747	3.89866	3.8708	3.82486	3.78998	3.77631	3.76622	3.78724	3.81268	3.85363	3.89056	3.95385	4.01222	4.02303	4.00581	3.98169	3.94252	3.91683	3.8732	3.83948	3.76292	3.76974	3.77773	3.77729	3.7726	3.80391	3.81071	3.81544	3.79556	3.80033	3.82533	3.84172	3.83156	3.84584	3.87151	3.87577	3.843	3.8155	3.7995	3.77589	3.74886	3.71776	3.72137	3.70824	3.70874	3.68522	3.64971	3.61485	3.57984	3.54804	3.51498	3.4846	3.46243	3.42095	3.41205	3.40048	3.43235	3.50036	3.6264	3.67661	3.71302	3.76378	3.8052	3.82829	3.82674	3.81203	3.7554	3.67155	3.63553	3.58551	3.52686	3.47579	3.40884	3.35795	3.31262	3.27981	3.31529	3.33643	3.36479	3.42203	3.56451	3.66305	3.77492	3.85522	3.89256	3.92598	3.92809	3.91568	3.90397	3.89456	3.88664	3.88202	3.87692	3.87397	3.87309	3.87171	3.87541	3.87534	3.87696	3.86362	3.85464	3.83785	3.80316	3.79367	3.80002	3.80878	3.81058	3.80718	3.80017	3.80613	3.80402	3.80454	3.80727	3.80771	3.80837	3.81103	3.81006	3.81191	3.7877	3.7673	3.74579	3.7268	3.70754	3.71159	3.72679	3.73004	3.73776	3.74171	3.75777	3.77834	3.75261	3.7537	3.68911	3.57439	3.51927	3.42777	2.93972
0	20	4.18757	4.03772	3.96793	3.87764	3.84734	3.84083	3.79853	3.84612	3.90053	3.91231	3.92311	3.93316	3.95061	3.91007	3.87553	3.85596	3.83806	3.85416	3.87576	3.87481	3.88211	3.89618	3.94396	3.92431	3.93708	3.93843	3.92864	3.96276	3.99424	4.01526	3.9968	3.99978	3.96806	3.9311	3.92279	3.89725	3.86189	3.86879	3.82393	3.80533	3.76321	3.73441	3.73606	3.75471	3.81587	3.85752	3.93886	4.03169	4.06759	4.08967	4.07631	4.06942	4.04998	4.02593	3.99509	3.97621	3.98187	4.00853	4.01444	4.06199	4.10155	4.10141	4.09468	4.08457	4.06862	4.02887	4.01236	3.98109	3.95679	3.93711	3.90163	3.89055	3.88174	3.86663	3.88278	3.91451	3.94063	3.9541	3.97094	3.94695	3.91546	3.8958	3.86417	3.83104	3.79735	3.73329	3.68481	3.63914	3.58921	3.53661	3.54401	3.5991	3.65194	3.67698	3.71922	3.73126	3.75595	3.75275	3.76937	3.7822	3.79846	3.8167	3.8446	3.913	3.96806	3.99936	4.04054	4.01161	4.05002	4.04558	4.08003	4.06703	3.99906	3.90798	3.84984	3.75482	3.68666	3.6608	3.64371	3.62553	3.6912	3.68244	3.68866	3.67152	3.68287	3.68187	3.64519	3.61299	3.60299	3.54309	3.52609	3.49637	3.482	3.53703	3.55092	3.60176	3.61919	3.62722	3.61468	3.60607	3.60663	3.56868	3.65259	3.66813	3.8105	3.88787	3.90974	3.92627	3.5685	0.56895	3.89242	4.00177	4.0404	3.98391	4.04321	3.73109	3.67249	3.63627	3.64427	3.63348	3.64539	3.67023	3.68857	3.72778	3.75234	3.71307	3.70498	3.71369	3.70122	3.70444	3.72456	3.72843	3.74392	3.73659	3.75199	3.7327	3.70734	3.72552	3.7529	3.8342	3.92354	3.98638	4.07527	4.12107	4.11218	4.099	4.0774	4.06237	4.03333	3.99362	3.98742	4.01818	4.03482	4.01155	3.9893	3.98485	3.98903	3.97159	3.94514	3.93165	3.91796	3.90159	3.87511	3.87305	3.8787	3.89644	3.93618	3.96555	3.98196	4.01052	4.05105	4.08044	4.0919	4.0956	4.12332	4.13194	4.07805	4.00951	3.99783	3.98872	3.96063	3.93002	3.94756	3.9302	3.89474	3.8173	3.76625	3.73828	3.75948	3.74204	3.73279	3.69431	3.75846	3.78978	3.87117	3.9427	4.02049	4.07775	4.09561	4.0753	4.07614	4.06615	4.04087	3.99096	3.94491	3.90553	3.84347	3.83666	3.83231	3.81198	3.82992	3.88267	4.01934	4.10613	4.17249	4.27418	4.31081	4.22655	4.15647	2.77741	4.00932	3.73019	4.04503	4.10414	4.15862	4.14309	4.1415	4.06974	4.04086	4.021	4.0604	4.05924	4.04116	3.96693	3.91565	3.89326	3.87212	3.80836	3.81325	3.85953	3.91859	3.96764	4.02047	4.05348	4.10558	4.19453	4.23757	4.23615	4.20126	4.10929	4.02812	3.9663	3.93097	3.88151	3.83823	3.8182	3.85562	3.84556	3.85209	3.867	3.91256	3.93542	3.97697	4.02846	4.01754	3.99628	3.97926	3.9205	3.84113	3.80046	3.75467	3.73627	3.71032	3.66485	3.65335	3.63335	3.66333	3.70605	3.73986	3.77999	3.81383	3.84888	3.90118	3.9607	4.00923	4.0493	4.07733	4.092	4.10027	4.11397	4.12764	4.1324	4.10879	4.08639	4.07824	4.06474	4.06301	4.07409	4.07892	4.08641	4.0984	4.11741	4.12473	4.09572	4.05432	4.00253	3.95349	3.93189	3.90019	3.88843	3.87811	3.87635	3.89663	3.91301	3.96565	4.00004	3.9638	3.95994	3.95957	3.94678	3.96007	3.9667	3.97782	3.97822	3.94128	3.87882	3.81796	3.77393	3.74824	3.72841	3.71313	3.65823	3.69867	3.76356	3.82547	3.87135	3.90362	3.93888	3.96326	3.93293	3.94002	3.94595	3.95347	3.93428	3.92179	3.87033	3.81979	3.82223	3.79523	3.72976	3.71791	3.82166	3.87783	3.89231	3.90617	3.91116	3.93366	3.9683	4.01191	4.07605	4.15619	4.23626	4.26443	4.28809	4.32517	4.35799	4.34699	4.32539	4.30387	4.27357	4.0853	3.9917	3.85246	3.68559	3.56536	3.4696	3.44402	3.47334	3.54258	3.62879	3.84134	3.92915	4.04637	4.02678	4.00172	3.98134	3.95416	3.97763	3.98461	3.99354	4.01595	4.02262	4.04457	4.09022	4.10403	4.13453	4.14608	4.13566	4.13202	4.05247	3.96819	3.89972	3.83497	3.80361	3.80921	3.8439	3.89656	3.97337	4.05352	4.14662	4.21539	4.24868	4.30266	4.35256	4.37227	4.38376	4.43144	4.43877	4.44795	4.44178	4.47518	4.5232	4.60772	4.67492	4.6833	4.67831	4.68983	4.69587	4.70568	4.72208	4.69678	4.65032	4.61752	4.60706	4.58012	4.59039	4.59742	4.60948	4.72306	5.03118	5.50078	5.79778	5.97534	5.55341	5.73754	5.96665	6.26245	6.41368	6.91163	7.34479	7.96773	8.35576	9.02467	9.78364	10.4656	11.2707	12.2664	13.4652	15.1516	17.4748	19.9269	23.0808	27.2784	32.7713	40.273	51.0776	52.6616	60.6846	55.8455	48.0975	41.2385	32.2576	28.2823	22.9555	19.0184	15.7955	13.8487	12.6637	11.3257	9.79426	8.94606	8.20116	7.67545	7.37909	7.09598	6.79939	6.4152	6.10717	5.87978	5.69159	5.55165	5.42455	5.34316	5.28399	5.22881	5.18067	5.13187	5.08491	5.04324	4.96293	4.8442	4.70692	4.58896	4.46607	4.39103	4.35367	4.33125	4.34742	4.3364	4.33472	4.32897	4.27727	4.20382	4.12761	4.13972	4.13486	3.94467	3.83057	3.78189	3.76822	3.96192	4.10457	4.16111	4.1547	4.14162	4.11495	4.04814	4.00298	3.91211	3.82901	3.80887	3.80815	3.86587	3.89096	3.85207	3.82487	3.79406	3.7825	3.82014	3.87589	3.90047	3.93571	3.96243	3.99517	4.03874	4.08852	4.11271	4.11645	4.1032	4.03504	4.00633	3.97787	3.95577	3.95267	3.96294	3.98039	4.00523	4.04131	4.03248	3.97357	3.96419	3.98219	3.97822	3.95337	3.92163	3.88121	3.82324	3.76181	3.71501	3.67215	3.65504	3.67587	3.70117	3.70044	3.74282	3.75569	3.71328	3.64585	3.59862	3.57253	3.54759	3.54364	3.4928	3.45651	3.46094	3.51094	3.56233	3.62894	3.6876	3.7037	3.68989	3.67489	3.65688	3.68938	3.75765	3.83171	3.92171	3.99112	4.03325	4.07028	4.05769	4.04742	4.03526	4.01354	3.97389	3.95271	3.95095	3.97429	3.9866	3.99552	3.97921	4.00603	3.99822	3.99895	3.97502	3.96745	3.95162	3.96473	3.95229	3.95021	3.92698	3.9023	3.8022	3.65898	3.56251	3.53637	3.51019	3.48994	3.45492	3.36234	3.18457	3.11186	3.05235	3.12182	3.23065	3.43962	3.69429	3.81775	3.89929	3.91735	3.89246	3.8629	3.79929	3.68689	3.62321	3.565	3.58988	3.58061	3.57056	3.58291	3.5957	3.61195	3.63022	3.63786	3.67195	3.74577	3.84729	3.90722	3.95207	3.98961	4.01862	4.02397	3.10503	3.06767	3.79126	4.02653	4.05338	4.03746	4.00487	4.03863	4.08086	4.03985	4.00041	3.98674	3.93827	3.90099	3.85142	3.81819	3.77443	3.72534	3.70215	3.66201	3.64783	3.64475	3.65649	3.65851	3.67757	3.70203	3.71519	3.69338	3.7201	3.66228	3.65406	3.6469	3.66573	3.68221	3.72318	3.75959	3.67275	3.64245	3.63379	3.6296	3.6279	3.67743	3.74952	3.78643	3.75491	3.67397	3.62744	3.59268	3.596	3.60785	3.58071	3.57885	3.59686	3.57292	3.61343	3.67422	3.69884	3.71608	3.74793	3.76213	3.76891	3.76989	3.75638	3.70935	3.67058	3.6218	3.62183	3.62693	3.64411	3.64893	3.63512	3.6557	3.69907	3.78347	3.87309	3.91115	3.91201	3.91191	3.92736	3.93133	3.90109	3.89829	3.91759	3.93855	3.98127	3.99564	3.97659	3.92505	3.86616	3.77959	3.64397	3.57941	3.5245	3.53816	3.55532	3.51797	3.4672	3.47976	3.47223	3.51669	3.54444	3.54357	3.54857	3.54337	3.49715	3.4472	3.40095	3.35597	3.29402	3.27679	3.30168	3.32483	3.34313	3.37549	3.3947	3.38768	3.45397	3.64369	3.98907	4.05328	4.02173	3.97384	3.89308	3.80348	3.68667	3.52374	3.52991	3.72888	3.76512	3.74871	3.75376	3.77198	3.78623	3.82112	3.83986	3.81594	3.78548	3.76971	3.74318	3.60808	3.56585	3.553	3.51356	3.52773	3.5493	3.62192	3.71591	3.84704	3.85263	3.85566	3.82736	3.81052	3.80722	3.80966	3.82048	3.81699	3.80974	3.81613	3.82736	3.83007	3.83934	3.83879	3.81625	3.82827	3.82123	3.83313	3.86033	3.87292	3.84826	3.81489	3.79094	3.79465	3.79943	3.50891	3.65373	3.85089	3.80594	3.72056	3.63524	3.57717	3.51592	3.42634	3.37063	3.38864	3.4984	3.5847	3.64837	3.63209	3.67563	3.74323	3.81166	3.84764	3.83418	3.84703	3.86837	3.89533	3.87853	3.81938	3.7862	3.77742	3.70697	3.62513	3.61503	3.62565	3.64848	3.69132	3.7073	3.68027	3.63468	3.56782	3.54324	3.58102	3.63657	3.7202	3.75354	3.81199	3.83777	3.8477	3.78967	3.7456	3.70995	3.72669	3.83165	3.76358	3.69437	3.63351	3.58839	3.56509	3.58389	3.63644	3.69378	3.75752	3.82504	3.90115	4.01249	4.08916	4.11232	4.14416	4.17538	4.15047	4.11382	4.07138	4.02696	3.98135	3.96099	3.87144	3.84898	3.81312	3.80982	3.81271	3.85914	3.88689	3.86177	3.8153	3.7744	3.72213	3.66043	3.60998	3.57001	3.5153	3.46158	3.38684	3.37626	3.37926	3.39053	3.44869	3.56694	3.65297	3.71311	3.79861	3.87002	3.92517	3.9594	3.95831	3.96759	3.97871	3.96662	3.96082	3.94919	3.9751	3.98421	3.99923	3.95883	3.91608	3.87006	3.8226	3.8055	3.7667	3.76026	3.76105	3.77627	3.80896	3.83977	3.89401	3.91466	3.92062	3.94567	3.94875	3.97234	3.99589	4.00149	3.95152	3.84915	3.68924	3.59479	3.50368	3.44368	3.38681	3.3356	3.27809	3.25347	3.26247	3.3154	3.40683	3.48713	3.62598	3.68075	3.75185	3.87759	3.87593	3.7487	3.3837
20	-20	4.22841	4.28008	4.18579	4.19555	4.06353	3.9469	3.83214	3.72052	3.5893	3.45797	3.52227	3.61326	3.69397	3.7006	3.67247	3.69376	3.72325	3.75409	3.7313	3.70512	3.68934	3.67267	3.66376	3.65545	3.65411	3.65305	3.65681	3.66261	3.66983	3.68123	3.69017	3.70551	3.71459	3.73195	3.73988	3.75706	3.76304	3.77721	3.78214	3.78812	3.77834	3.77324	3.76708	3.76125	3.75149	3.74132	3.73855	3.73231	3.73328	3.73504	3.82349	3.83848	3.84384	3.86732	3.82793	3.79884	3.7433	3.61059	3.49511	3.40931	3.31246	3.34177	3.4808	3.68791	3.8679	3.9698	4.02837	4.05105	4.04653	4.04183	4.07438	4.07675	4.08293	4.07303	3.97602	3.8725	3.76774	3.66553	3.54947	3.45709	3.40947	3.37595	3.33651	3.27157	3.22378	3.21595	3.26128	3.32389	3.45059	3.89837	4.03963	4.15157	3.9578	3.99911	4.03533	4.06932	4.13448	4.11684	4.06883	4.01734	3.93723	3.84439	3.77271	3.72118	3.69862	3.7264	3.79704	3.90286	3.89802	3.87907	3.85601	3.83931	3.82022	3.80393	3.79646	3.80148	3.79858	3.79581	3.66635	3.67736	3.71867	3.73682	3.75888	3.75158	3.78151	3.80633	3.8317	3.85519	3.87996	3.91049	3.9429	3.98608	4.04846	4.07587	4.09256	4.10637	4.11769	4.12874	4.13712	4.14536	4.15086	4.15623	4.15031	4.14411	4.13178	4.12223	4.10811	4.09545	4.08073	4.05252	4.01428	3.97088	3.93701	3.89342	3.8684	3.84442	3.83434	3.83791	3.86257	3.87097	3.88823	3.90268	3.90213	3.88239	3.86573	3.84689	3.83051	3.81385	3.79838	3.77854	3.75177	3.75411	3.75652	3.76361	3.77349	3.84249	3.87367	3.90672	3.90463	3.90161	3.89878	3.89615	3.89375	3.89181	3.89038	3.87341	3.85388	3.84823	3.85171	3.88179	3.89612	3.8953	3.88248	3.87522	3.86644	3.66076	3.67931	3.72363	3.75548	3.8053	3.85375	3.90695	3.95764	3.99237	3.99937	4.0055	4.01061	4.01454	4.0172	4.01854	4.01872	4.01769	4.01542	4.01182	4.00684	3.95836	3.90994	3.85821	3.80998	3.76101	3.72752	3.73335	3.75997	3.79905	3.83361	3.86906	3.85358	3.83862	3.81653	3.81117	3.79911	3.78849	3.77922	3.77134	3.76537	3.76064	3.75745	3.71921	3.6681	3.65831	3.69305	3.72399	3.75976	3.78164	3.78809	3.79896	3.80658	3.81838	3.82657	3.83848	3.84689	3.85815	3.86643	3.85284	3.82573	3.79751	3.765	3.72855	3.70878	3.71085	3.64199	3.59153	3.5456	3.50813	3.41363	3.54263	3.82681	3.90309	3.93946	3.98659	4.0025	4.0146	4.03251	4.04664	4.02279	4.02406	4.00545	3.98535	3.96462	3.92862	3.90143	3.87299	3.84421	3.81716	3.79244	3.76655	3.73626	3.71278	3.69391	3.69823	3.68696	3.68659	3.68262	3.68404	3.68555	3.68938	3.69473	3.70021	3.70965	3.72169	3.73633	3.75674	3.77198	3.78727	3.80331	3.8192	3.83512	3.85084	3.86571	3.88037	3.8932	3.9011	3.91096	3.91611	3.92252	3.925	3.91621	3.91313	3.91091	3.9123	3.91132	3.91449	3.87421	3.81907	3.77157	3.72934	3.76043	3.79634	3.84125	3.89704	3.91043	3.92387	3.9405	3.95821	3.97762	3.99904	4.02097	4.04622	4.07003	4.0982	4.14518	4.16981	4.19367	4.21039	4.21939	4.22741	4.17969	4.1098	4.05916	4.02013	4.00256	3.98954	3.99174	3.99931	4.02113	4.05193	4.07233	4.0606	4.05537	4.12887	4.13357	4.11953	4.06574	4.01284	3.96511	3.92138	3.8787	3.84287	3.81195	3.79606	3.75983	3.76515	3.77463	3.78928	3.80515	3.8237	3.84419	3.86666	3.88304	3.8701	3.85923	3.85097	3.84596	3.84314	3.84371	3.85013	3.94086	3.97435	3.87159	3.75771	3.65732	3.54792	3.504	3.45498	3.58599	3.65946	3.72482	3.79017	3.86406	3.93603	3.99639	4.04734	4.07973	4.07813	4.07515	4.07329	4.0591	4.02104	3.98468	3.95331	3.89814	3.83305	3.77383	3.72459	3.67975	3.66744	3.66271	3.67333	3.72182	3.77593	3.84208	3.87611	3.90425	3.93927	3.94923	3.96365	3.98003	3.99671	4.01655	4.03504	4.05744	4.08643	4.12162	4.13037	4.11183	4.09427	4.07755	4.06301	4.05124	4.04259	4.03599	4.0326	4.04208	4.04783	4.06155	4.07448	4.0894	4.10681	4.12575	4.14592	4.12805	4.07498	4.01919	3.96335	3.90967	3.93919	3.92114	3.90646	3.89573	3.89368	3.8967	3.90188	3.96641	3.9902	4.01276	4.0406	4.08684	4.10217	4.09732	4.09781	4.16043	4.20048	4.23942	4.28642	4.33793	4.39257	4.49314	4.56135	4.64121	4.6984	4.77034	4.82176	4.90027	4.999	5.11676	5.25787	5.43772	5.60128	5.79704	6.02413	6.245	6.48901	6.8173	7.30564	7.83538	8.63803	9.47851	10.5712	11.7662	13.094	14.6686	16.9216	19.3418	23.2694	29.2903	34.039	38.6725	39.7054	39.8609	33.4284	28.4742	23.8196	19.8876	16.7047	14.396	12.8107	11.467	10.3325	9.41565	8.19915	7.39403	6.73829	6.11975	5.90143	5.75874	5.60259	5.40258	5.2375	5.09644	4.97538	4.86679	4.79624	4.73133	4.67528	4.62757	4.54071	4.49856	4.46664	4.43843	4.42179	4.40492	4.39791	4.38926	4.38754	4.38413	4.38704	4.38612	4.38606	4.3855	4.38265	4.37022	4.33687	4.29623	4.2571	4.22387	4.18321	4.13215	4.07737	4.02178	3.96538	3.90755	3.84995	3.79322	3.77256	3.82319	4.06418	4.04533	4.02064	4.00723	3.99083	3.97855	3.96344	3.72984	3.66954	3.61505	3.53472	3.78603	3.91804	3.92682	3.93349	3.94689	3.95825	3.97553	3.99108	4.01136	4.03071	4.05238	4.07387	4.07777	4.07108	3.97429	3.94919	3.94567	3.95275	3.99076	4.00081	3.97064	3.93895	3.86208	3.81427	3.77696	3.73151	3.69999	3.621	3.60185	3.58465	3.62201	3.63211	3.64302	3.66088	3.68276	3.71329	3.745	3.78679	3.85264	3.9245	3.99302	4.05565	4.07796	4.05057	4.03538	4.01088	3.98984	3.96642	3.96906	3.95879	3.965	3.9278	3.88693	3.80021	3.71769	3.63805	3.56509	3.49921	3.48882	3.46474	3.5405	3.60898	3.67203	3.77215	3.84442	3.8787	3.87009	3.86011	3.84439	3.83036	3.80839	3.79071	3.72654	3.69935	3.66585	3.63915	3.61317	3.58824	3.56631	3.54426	3.52608	3.50742	3.49166	3.47589	3.4619	3.44873	3.4405	3.44878	3.44336	3.43963	3.43339	3.43098	3.42606	3.42469	3.42187	3.42233	3.42239	3.42549	3.42891	3.43497	3.44189	3.451	3.4615	3.47377	3.48231	3.49763	3.51337	3.53056	3.5498	3.57621	3.59678	3.62666	3.66197	3.70324	3.7548	3.79568	3.83053	3.83562	3.82234	3.81379	3.79727	3.78725	3.79598	3.84658	3.8847	3.92067	3.9114	3.79117	3.65242	3.47315	3.27967	3.09119	3.24125	3.71797	3.83048	3.87854	3.92884	3.98341	4.04418	4.0727	4.0618	4.1516	4.19184	4.21971	4.1532	4.084	4.01827	3.8869	3.73061	3.61222	3.53582	3.49274	3.46557	3.46905	3.49871	3.53862	3.57486	3.58082	3.54469	3.56835	3.59397	3.63023	3.67137	3.70131	3.73216	3.75868	3.78571	3.81305	3.84266	3.87134	3.89988	3.91072	3.91931	3.91155	3.88987	3.86956	3.8306	3.78598	3.74631	3.70819	3.67699	3.65367	3.64175	3.64966	3.47556	3.59622	3.34239	3.61467	3.76625	3.8172	3.85147	3.84253	3.76675	3.70897	3.63982	3.63896	3.6468	3.66054	3.67638	3.69544	3.71042	3.7328	3.76131	3.7856	3.80798	3.82729	3.82689	3.792	3.77066	3.70521	3.67851	3.64695	3.62944	3.64632	3.66132	3.68938	3.71759	3.74333	3.76664	3.78673	3.80582	3.82094	3.83132	3.82155	3.81673	3.79183	3.78443	3.78528	3.78203	3.78477	3.79834	3.80525	3.81356	3.83693	3.83368	3.82033	3.79459	3.77387	3.73849	3.70843	3.66739	3.62993	3.58279	3.55185	3.50868	3.43143	3.44354	3.45498	3.48046	3.55926	3.60651	3.65205	3.69296	3.8031	3.80447	3.80015	3.78991	3.77992	3.7177	3.67128	3.63416	3.60117	3.56899	3.53881	3.51396	3.48875	3.47194	3.45287	3.44407	3.43165	3.43901	3.44426	3.4617	3.46777	3.4778	3.48779	3.49953	3.51209	3.5238	3.53784	3.54556	3.54064	3.53312	3.47594	3.37254	3.29656	3.23829	3.20389	3.1608	3.25033	3.4071	3.50772	3.56623	3.57722	3.58989	3.60123	3.61582	3.63213	3.64701	3.66126	3.67458	3.68767	3.65354	3.62105	3.58852	3.56176	3.54175	3.52997	3.5068	3.54035	3.58031	3.62032	3.66956	3.72473	3.77738	3.835	3.8678	3.88423	3.88672	3.88718	3.88811	3.88866	3.87766	3.84785	3.82576	3.79813	3.77342	3.74852	3.71503	3.71647	3.7323	3.74844	3.76261	3.75151	3.74251	3.73007	3.72456	3.71591	3.71554	3.72631	3.72246	3.78355	3.81346	3.8298	3.81082	3.79136	3.77185	3.7506	3.73234	3.71115	3.69054	3.6725	3.64526	3.64699	3.658	3.66938	3.68636	3.70794	3.73981	3.7577	3.75696	3.77863	3.7828	3.78594	3.79281	3.80382	3.75124	3.72829	3.70607	3.6474	3.59801	3.50399	3.51673	3.53868	3.61148	3.65673	3.72001	3.7751	3.83518	3.88563	3.94049	3.98909	4.02617	4.03573	4.02378	4.00645	3.99641	3.97968	3.93664	3.92407	3.89896	3.87302	3.84613	3.82091	3.79369	3.76468	3.7396	3.70736	3.68063	3.65168	3.64139	3.61512	3.59069	3.55368	3.54168	3.50785	3.50531	3.50368	3.54366	3.55138	3.55561	3.56593	3.5724	3.58427	3.59751	3.6098	3.61946	3.63526	3.64386	3.65131	3.65405	3.6577	3.65993	3.66408	3.66608	3.67068	3.65324	3.65387	3.64339	3.64031	3.63353	3.61852	3.61069	3.59781	3.59296	3.58256	3.60266	3.60244	3.60952	3.61369	3.62622	3.63524	3.68014	3.6912	3.71206	3.72885	3.75798	3.78137
20	0	3.58564	3.6834	3.73864	3.82839	3.93407	3.92365	3.9111	3.8872	3.90656	3.85927	3.89959	3.84131	3.71584	3.68384	3.62827	3.6151	3.68625	3.67399	3.66661	3.66571	3.66329	3.68074	3.70382	3.7908	3.91501	4.05474	4.12864	4.13531	4.10225	4.06743	4.0336	3.99681	3.9622	3.91782	3.87025	3.78977	3.78226	3.70802	3.63696	3.58748	3.54212	3.57125	3.51388	3.47966	3.46744	3.47601	3.52073	3.57089	3.63659	3.69882	3.75577	3.75216	3.71073	3.66821	3.6197	3.58284	3.61227	3.62797	3.66631	3.73158	3.80942	3.86396	3.83265	3.85578	3.87592	3.85487	3.88369	3.93295	3.98687	3.96069	3.93451	3.91831	3.90236	3.90294	3.9878	3.97696	3.9733	3.94817	3.92884	3.91844	3.91157	3.90676	3.90781	3.89483	3.86722	3.82861	3.72977	3.60668	3.50807	3.41614	3.3252	3.27948	3.25005	3.28776	3.29492	3.34251	3.42443	3.4873	3.53729	3.57672	3.61912	3.66851	3.68683	3.65959	3.66202	3.69956	3.74233	3.78836	3.83458	3.8881	3.91554	3.91099	3.89635	3.90113	3.89709	3.90048	3.89411	3.90923	3.91037	3.91935	3.89333	3.8698	3.85245	3.83324	3.84704	3.85082	3.83501	3.83149	3.81308	3.7831	3.7802	3.78706	3.78102	3.77653	3.75563	3.73138	3.72325	3.74914	3.76131	3.79378	3.88595	3.94632	3.99026	3.9987	4.00919	3.99157	3.91617	3.9058	3.87055	3.86822	3.89119	3.9059	3.88803	3.87337	3.86228	3.87969	3.89512	3.91956	3.9323	3.95047	3.96243	3.97797	3.99101	3.9971	3.9535	3.90198	3.76336	3.74558	3.68633	3.81872	3.95755	4.05202	4.04813	4.04453	3.98698	3.42688	3.46005	3.59703	3.59836	3.56339	3.51767	3.5563	3.56989	3.66066	3.6628	3.65578	3.63466	3.62872	3.62115	3.64334	3.65793	3.63187	3.62042	3.5666	3.51247	3.51659	3.57051	3.59155	3.6199	3.63176	3.67462	3.73096	3.76423	3.80009	3.80612	3.82753	3.8346	3.81414	3.8058	3.81633	3.82968	3.85154	3.88903	3.90812	3.91129	3.92714	3.92731	3.93987	3.94736	3.96532	3.9517	3.94403	3.88539	3.8648	3.86402	3.86386	3.86653	3.8892	3.92197	3.89263	3.87004	3.92062	3.92949	3.88496	3.87712	3.81827	3.68661	3.58494	3.52438	3.49561	3.50962	3.47567	3.46178	3.50439	3.57352	3.65875	3.7417	3.80129	3.85005	3.89216	3.94526	3.96274	3.985	3.98462	3.99633	4.00823	4.01067	4.0106	3.9704	3.92129	3.89303	3.82578	3.79362	3.79185	3.79975	3.83396	3.89499	3.94475	3.99762	4.04881	4.11988	4.17269	4.19411	4.16999	4.16323	4.15065	4.10157	4.00036	3.86905	3.70502	3.60313	3.58788	3.59911	3.62196	3.67292	3.76722	3.89489	3.95993	3.91939	3.90403	3.8841	3.86943	3.85816	3.85427	3.8603	3.89803	3.91094	3.85424	3.77968	3.73407	3.74255	3.77423	3.85909	3.87022	3.89981	3.9272	3.92164	3.94436	3.98943	3.98432	4.00812	3.92495	3.8385	3.74245	3.6878	3.65242	3.67424	3.64698	3.69692	3.73776	3.79098	3.84722	3.90218	3.95377	4.0088	4.06312	4.10139	4.12416	4.17015	4.17808	4.18016	4.16351	4.15681	4.13884	4.11514	4.09226	4.0593	4.03488	4.02257	4.01176	3.99351	3.95312	3.87639	3.8165	3.7871	3.74307	3.75517	3.76172	3.76811	3.79388	3.81097	3.80315	3.79916	3.81727	3.81026	3.80024	3.79046	3.78149	3.77429	3.76985	3.76314	3.76261	3.76691	3.77153	3.77589	3.80415	3.83133	3.83944	3.83087	3.84742	3.84962	3.85414	3.87692	3.90053	3.92643	3.94416	3.92658	3.86548	3.73865	3.69336	3.61758	3.53	3.48286	3.40721	3.39361	3.42004	3.42283	3.44954	3.51909	3.58954	3.66168	3.74335	3.77209	3.8461	3.8784	3.90531	3.92982	3.96052	3.96894	4.02021	3.96244	3.85402	3.70947	3.61092	3.51407	3.47642	3.33743	3.34571	3.41815	3.5583	3.71523	3.8503	4.01019	4.03357	4.04999	4.0542	4.027	3.99987	3.92956	3.91383	3.89936	3.88541	3.82041	3.8223	3.84936	3.92628	3.93944	3.9768	4.02298	4.04963	4.07802	4.07763	4.06022	4.05431	4.03363	4.00607	3.98578	3.95936	3.93784	3.91846	3.89699	3.87804	3.86043	3.86887	3.84107	3.77218	3.60845	3.46465	3.30577	3.21091	3.2078	3.25728	3.30087	3.34524	3.42348	3.5667	3.69206	3.79974	3.91187	3.94429	3.96077	3.98962	4.00593	3.88872	3.89413	3.90236	3.9525	4.00961	4.13749	4.22923	4.30031	4.36751	4.45762	4.54439	4.6101	4.67036	4.72065	4.71955	4.72995	4.69759	4.67452	4.6653	4.64643	4.61561	4.60012	4.65221	4.68677	4.71424	4.64461	4.8961	4.973	5.19479	5.41968	5.86715	6.41869	7.08305	7.69599	8.5642	9.58218	10.9962	12.2805	14.4015	16.622	19.2693	21.9009	25.1779	28.3429	30.4694	29.7594	25.4499	21.333	15.7346	14.7368	12.9331	10.7964	9.32955	8.1597	7.51418	7.01432	6.53489	6.16844	5.91139	5.68864	5.54684	5.39302	5.29369	5.05774	5.0038	4.96469	4.93314	4.90777	4.84553	4.73007	4.52262	4.44171	4.31442	4.1756	4.12466	4.1057	4.12416	4.13281	4.13044	4.17312	4.16357	4.12219	4.0949	4.11164	4.11172	4.12475	4.12223	4.10958	4.09095	4.07246	4.07598	4.04993	4.05348	4.07448	4.06899	4.05668	3.98472	3.8646	3.63249	3.57198	3.50491	3.46877	3.4751	3.5684	3.64739	3.63045	3.65352	3.64341	3.67503	3.74645	3.80532	3.86787	4.00514	4.03923	4.09194	4.13005	4.16608	4.16224	4.13124	4.12241	4.11645	4.10685	4.08784	3.97808	3.87878	3.79499	3.72728	3.68793	3.6622	3.71113	3.79667	3.90344	4.0291	4.11673	4.1591	4.23065	4.20785	4.16988	4.0767	4.028	3.95798	3.9313	3.91578	3.9179	3.91242	3.84634	3.7521	3.66576	3.61321	3.61413	3.63057	3.65627	3.8228	3.89292	3.91953	3.93238	3.94059	3.93902	3.94936	3.95275	3.94594	3.94482	3.9047	3.86489	3.82624	3.75511	3.70332	3.70264	3.6659	3.60326	3.54436	3.47757	3.37978	3.32852	3.26635	3.24369	3.36633	3.38519	3.4523	3.51603	3.52252	3.51762	3.49714	3.46361	3.45039	3.41958	3.43794	3.48855	3.6098	3.71855	3.82501	3.87535	3.92336	3.94175	3.93558	3.92476	3.91355	3.89928	3.87143	3.8508	3.83029	3.73882	3.56503	3.39582	3.32241	3.24866	3.21368	3.27202	3.35847	3.4611	3.55889	3.64498	3.72293	3.80543	3.87948	3.9688	3.99815	4.03867	4.03541	4.01934	3.99994	3.97516	3.94903	3.90855	3.83373	3.81295	3.80295	3.81273	3.81609	3.83793	3.85469	3.87709	3.90002	3.91747	3.92511	3.93765	3.95823	4.01727	4.01252	3.97271	3.88297	3.76837	3.70612	3.57235	3.56325	3.60243	3.61229	3.61675	3.65658	3.79151	3.779	3.75239	3.71792	3.68236	3.64758	3.60813	3.59155	3.55977	3.5841	3.61446	3.60374	3.60315	3.57201	3.5074	3.54499	3.5831	3.62264	3.65479	3.67775	3.71717	3.76774	3.79097	3.80624	3.7995	3.77701	3.77097	3.77313	3.76968	3.75616	3.74196	3.73087	3.71416	3.70165	3.7092	3.72038	3.73202	3.73283	3.75837	3.76577	3.78114	3.78663	3.74756	3.70037	3.63844	3.52767	3.40124	3.28574	3.17286	3.08549	3.03119	2.96047	2.91447	2.92505	2.99595	3.08877	3.20966	3.34266	3.46146	3.50723	3.53364	3.54329	3.54023	3.52479	3.51047	3.51731	3.48781	3.46663	3.53546	3.59732	3.67943	3.74587	3.80367	3.93406	4.01568	4.03227	4.00443	3.97253	3.9401	3.92131	3.89412	3.88459	3.8385	3.79528	3.74962	3.70277	3.65964	3.58133	3.53261	3.48149	3.45432	3.4397	3.45498	3.46401	3.48295	3.50886	3.53529	3.56269	3.59301	3.62366	3.6411	3.64921	3.64025	3.62427	3.59493	3.57074	3.53757	3.57646	3.59693	3.64518	3.61299	3.56372	3.52002	3.50662	3.50102	3.49155	3.51301	3.44606	3.37366	3.38909	3.40184	3.43901	3.46865	3.49658	3.56271	3.6173	3.67751	3.73841	3.81692	3.84927	3.83657	3.80173	3.77443	3.75832	3.74654	3.78547	3.82171	3.79688	3.75575	3.71472	3.67783	3.64674	3.63333	3.58579	3.5619	3.5476	3.55119	3.5532	3.58721	3.57781	3.57197	3.56242	3.55385	3.54448	3.53403	3.52612	3.51447	3.50846	3.4927	3.48264	3.4594	3.47392	3.44394	3.42721	3.4528	3.47381	3.43726	3.42653	3.45603	3.45134	3.51277	3.60419	3.69204	3.71606	3.72789	3.72529	3.74996	3.75625	3.76389	3.77643	3.78776	3.79175	3.83718	3.84917	3.85869	3.86759	3.87481	3.87504	3.83528	3.79892	3.76943	3.72808	3.66651	3.63292	3.61777	3.59207	3.58715	3.75248	3.83906	3.87455	3.67809	3.68957	3.69337	3.69855	3.73206	3.76686	3.79483	3.84491	3.82845	3.79045	3.71373	3.73063	3.73581	3.76355	3.81902	3.86629	3.9264	3.95955	3.95199	3.94661	3.8838	3.78022	3.67499	3.71168	3.7083	3.76276	3.71478	3.66908	3.62393	3.57152	3.56433	3.58351	3.63526	3.66681	3.72262	3.77015	3.81055	3.83681	3.82448	3.82176	3.83687	3.82315	3.78077	3.72714	3.64917	3.56349	3.49102	3.4506	3.42444	3.39043	3.39099	3.42578	3.44372	3.48626	3.46217	3.57683	3.66949	3.72907	3.8199	3.8433	3.86885	3.8909	3.91311	3.87578	3.82175	3.75846	3.68297	3.59565	3.5099	3.46413	3.34781	3.35658	3.30832	3.33017	3.33478	3.38569	3.40714	3.41771	3.4342	3.42774	3.09701	3.63216	3.66676	3.69409	3.72154	3.74802	3.7692	3.79274	3.7836	3.78693	3.7885	3.79066	3.78965	3.78519	3.77333	3.75847	3.74091	3.72032	3.69716	3.6717	3.64388	3.61472	3.58078	3.54511	3.50538	3.46878	3.42821	3.39399	3.35532	3.29791	3.18063	2.90141
20	20	2.53141	2.95249	3.37275	3.64339	3.74889	3.77547	3.66639	3.66128	3.65032	3.57603	3.54837	3.51645	3.48991	3.47454	3.48049	3.47757	3.50645	3.52609	3.52222	3.46004	3.43825	3.37956	3.33808	3.35533	3.44647	3.54053	3.5921	3.62787	3.64883	3.64836	3.66016	3.66228	3.66752	3.64499	3.62755	3.59951	3.59024	3.55695	3.52103	3.45516	3.4559	3.44874	3.46637	3.48351	3.50459	3.47322	3.44924	3.46136	3.46637	3.44871	3.45349	3.43847	3.45036	3.40496	3.39872	3.39098	3.48015	3.5152	3.59455	3.60427	3.63747	3.61607	3.62672	3.62678	3.61312	3.56166	3.45798	3.42111	3.36534	3.33672	3.30598	3.3231	3.39136	3.48186	3.56662	3.61872	3.65598	3.70728	3.75615	3.78231	3.79742	3.8019	3.78014	3.82577	3.84878	3.84335	3.83969	3.83496	3.80594	3.80043	3.78306	3.7297	3.68246	3.61367	3.55663	3.51174	3.43519	3.38837	3.34374	3.35439	3.36465	3.34584	3.39645	3.43099	3.4271	3.43153	3.4658	3.48833	3.52495	3.57735	3.62385	3.69637	3.72468	3.72705	3.68936	3.63156	3.59946	3.60326	3.50967	3.43405	3.2984	3.23308	3.19228	3.19248	3.27587	3.35697	3.44695	3.52332	3.59756	3.65979	3.70934	3.70975	3.66347	3.65978	3.63921	3.62215	3.60784	3.61497	3.59225	3.61045	3.61461	3.58302	3.55582	3.5494	3.61641	3.65289	3.67782	3.69871	3.70417	3.7141	3.73238	3.7255	3.71656	3.71669	3.72528	3.7403	3.71521	3.69215	3.62036	3.51739	3.40513	3.31406	3.23185	3.20489	3.20139	3.25776	3.37032	3.47126	3.53293	3.61364	3.69393	3.75066	3.73457	3.74274	3.6986	3.68876	3.67116	3.63162	3.61527	3.59337	3.5878	3.55871	3.59602	3.71447	3.75034	3.82753	3.86669	3.86844	3.87775	3.8858	3.88416	3.8276	3.77586	3.73678	3.64304	3.59179	3.54382	3.52425	3.60622	3.54345	3.44975	3.33899	3.21383	3.11773	3.04406	3.00958	3.02067	3.0361	3.11494	3.2494	3.4019	3.52693	3.64125	3.74344	3.8586	3.99987	3.87251	3.78485	3.81719	3.8637	3.91482	3.97271	4.02371	3.99634	3.97942	3.9639	3.937	3.90462	3.88511	3.86238	3.82942	3.76313	3.72685	3.6937	3.67047	3.6513	3.64726	3.64462	3.6513	3.65913	3.66952	3.67921	3.6876	3.6994	3.6968	3.68805	3.6413	3.56791	3.47276	3.37422	3.33245	3.3001	3.25086	3.25541	3.27889	3.32205	3.36473	3.45475	3.54237	3.63988	3.69627	3.75569	3.77973	3.79322	3.80251	3.81673	3.82611	3.83966	3.85901	3.86912	3.87268	3.84835	3.77635	3.67418	3.53292	3.43812	3.32315	3.2224	3.18948	3.1968	3.2377	3.31876	3.36116	3.47002	3.51318	3.57054	3.61256	3.64001	3.68727	3.76614	3.80887	3.80492	3.76977	3.73523	3.67722	3.65785	3.59152	3.5449	3.55349	3.55809	3.57764	3.52968	3.48917	3.45873	3.42232	3.40732	3.38616	3.3712	3.38919	3.36593	3.32682	3.30685	3.3349	3.34743	3.35647	3.37005	3.36443	3.37222	3.36541	3.35131	3.35443	3.3707	3.37936	3.40895	3.43838	3.44177	3.35616	3.38984	3.46522	3.57073	3.70008	3.76966	3.76768	3.73635	3.72995	3.73124	3.67843	3.56655	3.4703	3.42132	3.39681	3.60302	3.62987	3.63486	3.64316	3.66999	3.68118	3.69423	3.70358	3.70024	3.66701	3.63328	3.57216	3.58801	3.63845	3.69269	3.72088	3.75534	3.75812	3.7628	3.77299	3.75165	3.79515	3.83406	3.83606	3.86241	3.88602	3.8889	3.8696	3.82551	3.76515	3.75929	3.80428	3.85318	3.90091	3.93396	3.95905	3.97183	3.97772	3.98583	3.97972	3.97542	3.9687	3.96046	3.93685	3.91499	3.89171	3.87093	3.76393	3.72628	3.69375	3.65851	3.65274	3.64287	3.63287	3.59556	3.54654	3.50387	3.4727	3.43839	3.41722	3.35704	3.21512	3.12067	3.09893	3.12302	3.21905	3.34719	3.48051	3.58722	3.71417	3.81526	3.9054	3.95242	3.91469	3.89276	3.77869	3.68568	3.62857	3.59825	3.60485	3.60485	3.54168	3.47672	3.45972	3.44235	3.406	3.41171	3.42455	3.43463	3.497	3.57633	3.65804	3.6854	3.68512	3.74154	3.78247	3.84361	3.84535	3.82647	3.77967	3.68385	3.60723	3.53776	3.53554	3.57077	3.63395	3.6758	3.71351	3.74649	3.82366	3.88969	3.88837	3.87258	3.84648	3.86941	3.81826	3.82084	3.79388	3.79906	3.79014	3.72135	3.70343	3.68079	3.6579	3.74063	3.79826	3.80738	3.77048	3.74213	3.72677	3.72308	3.70026	3.70644	3.71251	3.74595	3.78193	3.83576	3.87969	3.95205	4.08779	4.16702	4.42605	4.51587	4.54324	4.51067	4.52608	4.54044	4.62299	4.56875	4.52992	4.5112	4.70676	4.9119	5.19488	5.63164	6.13515	6.73947	7.4149	8.62273	9.66499	11.1287	12.2026	15.2262	17.9293	20.3119	22.5991	24.2204	23.8707	20.3629	18.1484	15.7444	13.1922	11.5588	9.69799	8.54439	7.82967	7.10803	6.58933	6.07051	5.7594	5.48445	5.28516	5.11254	4.92269	4.7967	4.65301	4.52767	4.4032	4.23574	4.09721	3.97764	3.85728	3.67956	3.60684	3.59077	3.60988	3.64998	3.70715	3.78901	3.8408	3.88633	3.94176	3.9236	3.896	3.79861	3.6522	3.29285	3.59712	3.72893	3.67179	3.59795	3.5625	3.51977	3.50273	3.49924	3.51833	3.52431	3.57681	3.61847	3.65605	3.66712	3.66515	3.63931	3.63962	3.6175	3.58395	3.54484	3.51685	3.51437	3.53642	3.57217	3.59085	3.62044	3.64758	3.70209	3.73659	3.75604	3.75777	3.74091	3.71389	3.66307	3.68276	3.68859	3.69011	3.69155	3.73889	3.74914	3.83199	3.84596	3.84091	3.81714	3.78726	3.76196	3.79561	3.77985	3.74365	3.70796	3.64342	3.58834	3.62372	3.65023	3.66488	3.66618	3.64221	3.61254	3.55155	3.47301	3.42116	3.37369	3.32504	3.3494	3.37402	3.40265	3.4132	3.35671	3.32723	3.28794	3.2724	3.27835	3.28969	3.27536	3.22198	3.15991	3.11851	3.09322	3.10249	3.1279	3.15798	3.23649	3.37139	3.48945	3.4489	3.5394	3.62952	3.73404	3.81114	3.84445	3.83256	3.80229	3.76872	3.72774	3.68625	3.66827	3.64235	3.51505	3.41637	3.34469	3.32525	3.28631	3.26952	3.27962	3.24732	3.24339	3.26503	3.29845	3.3194	3.37279	3.35546	2.71365	3.52854	3.56809	3.58804	3.55383	3.52546	3.37269	3.32744	3.25883	3.28154	3.40499	3.52355	3.67562	3.75547	3.73276	3.50892	3.55087	3.57625	3.5714	3.62683	3.76287	3.76297	3.70879	3.71234	3.71274	3.71613	3.73147	3.75186	3.76865	3.75621	3.75095	3.72077	3.6794	3.64125	3.58742	3.5692	3.55155	3.57056	3.58002	3.59395	3.6099	3.63073	3.64187	3.67502	3.68916	3.72921	3.7151	3.68588	3.58461	3.48624	3.36507	3.25379	3.2078	3.17079	3.17291	3.24169	3.33504	3.36806	3.38116	3.39172	3.40349	3.43218	3.38624	3.37494	3.3685	3.35954	3.36781	3.37302	3.38133	3.41172	3.49319	3.54005	3.56613	3.57223	3.59226	3.61207	3.6026	3.58464	3.54704	3.51446	3.54519	3.48424	3.46568	3.49415	3.46592	3.46494	3.44572	3.41956	3.42942	3.46193	3.45687	3.45169	3.41786	3.4131	3.38829	3.34667	3.39826	3.46333	3.49677	3.53603	3.58533	3.5988	3.59791	3.64617	3.69214	3.72664	3.74566	3.77693	3.82679	3.79975	3.77292	3.74443	3.71133	3.69457	3.63247	3.58135	3.52442	3.46454	3.41763	3.38344	3.35564	3.38302	3.41445	3.4727	3.56306	3.65404	3.70192	3.74752	3.77889	3.80932	3.83652	3.85902	3.87765	3.90617	3.91329	3.92474	3.92485	3.9114	3.89076	3.85438	3.82319	3.78961	3.75574	3.72342	3.68625	3.65675	3.60822	3.5666	3.50864	3.49627	3.47515	3.48449	3.48144	3.53604	3.56629	3.53037	3.44751	3.38444	3.38349	3.3949	3.41901	3.43784	3.49487	3.58331	3.61881	3.65869	3.66405	3.64226	3.62087	3.59913	3.57463	3.55173	3.51535	3.4679	3.31691	3.19002	3.04224	2.9345	2.91902	2.91705	3.02928	3.16252	3.31498	3.50538	3.61999	3.71259	3.78503	3.8433	3.86489	3.81435	3.77906	3.73968	3.66526	3.57985	3.48973	3.4304	3.34728	3.28441	3.22395	3.13291	3.09447	3.05955	3.05506	3.07128	3.0126	2.97374	3.00846	3.04045	3.06847	3.12856	3.22439	3.33686	3.4321	3.53308	3.66219	3.75126	3.7772	3.73906	3.71904	3.69322	3.69444	3.72587	3.74014	3.75541	3.75638	3.76849	3.78237	3.80624	3.84063	3.88008	3.89862	3.90805	3.88178	3.89013	3.87151	3.84253	3.80293	3.77067	3.73376	3.70745	3.69966	3.68735	3.63316	3.57823	3.52404	3.47095	3.42042	3.38083	3.35746	3.32427	3.37701	3.44673	3.51344	3.58252	3.58214	3.59653	3.5691	3.60935	3.57113	3.51283	3.46441	3.40093	3.3151	3.25976	3.23767	3.22478	3.23604	3.26774	3.31874	3.32191	3.38109	3.39677	3.37437	3.36143	3.33973	3.34514	3.33817	3.3547	3.35998	3.41265	3.48236	3.54646	3.56655	3.58176	3.61068	3.63151	3.66091	3.70405	3.76744	3.79726	3.84053	3.8624	3.85392	3.86081	3.86307	3.86343	3.84307	3.8052	3.74419	3.6794	3.619	3.56701	3.5308	3.59281	3.52486	3.47489	3.22884	3.19733	3.20505	3.2916	3.35554	3.33723	3.35224	3.38928	3.43425	3.48461	3.52404	3.5664	3.60513	3.60693	3.58742	3.568	3.55425	3.5193	3.48656	3.4621	3.45424	3.43912	3.42051	3.45174	3.43948	3.41991	3.44878	3.52455	3.54827	3.55951	3.56445	3.54987	3.50538	3.46807	3.46045	3.48638	3.50378	3.50472	3.49767	3.48712	3.4732	3.47565	3.48216	3.49089	3.48344	3.42645	3.4389	3.43288	3.44647	3.62978	3.66137	3.70153	3.72967	3.73046	3.74579	3.6865	3.57447	3.40021	3.32479
