Acq. time (s)=	4
Accumulations=	3
Range=	Off
Autofocus=	At all XY pixels
SWIFT=	Off
AutoExposure=	Off
Spike filter=	Multiple accum.
Delay time (s)=	0
Binning=	1
Readout mode=	Signal
DeNoise=	Standard
ICS correction=	On
Dark correction=	Off
Inst. Process=	Off
Instrument=	LabRAM S3000
Detector=	Synapse
Objective=	x100
Grating=	1800
ND Filter=	25%
Laser (nm)=	632.81 
Spectro (cm-¹)=	521.228
Slit=	100.021
Hole=	199.981
Microscope=	Principal
StageXY=	Märzhauser
StageZ=	Märzhauser
Z (µm)=	-294.2
Project=	
Sample=	
Site=	
Title=	SOP_200nm_furu_p0.15
Remark=	
Date=	14.06.2019 10:52
Operator=	
Acquired=	14.06.2019 10:52:52
		358.285	358.609	358.934	359.26	359.585	359.909	360.235	360.56	360.886	361.21	361.535	361.859	362.185	362.51	362.834	363.16	363.485	363.809	364.135	364.459	364.784	365.108	365.434	365.758	366.083	366.407	366.733	367.057	367.381	367.705	368.03	368.355	368.68	369.004	369.328	369.652	369.978	370.302	370.626	370.95	371.274	371.598	371.923	372.248	372.572	372.896	373.22	373.544	373.868	374.192	374.516	374.84	375.164	375.49	375.813	376.137	376.461	376.785	377.109	377.433	377.757	378.081	378.404	378.728	379.052	379.376	379.699	380.023	380.347	380.671	380.994	381.318	381.642	381.965	382.288	382.611	382.935	383.258	383.582	383.906	384.229	384.553	384.876	385.2	385.522	385.845	386.169	386.492	386.816	387.139	387.463	387.785	388.108	388.431	388.755	389.078	389.402	389.723	390.047	390.37	390.693	391.015	391.338	391.662	391.985	392.307	392.63	392.953	393.276	393.598	393.921	394.244	394.566	394.889	395.212	395.535	395.857	396.18	396.503	396.825	397.148	397.471	397.792	398.115	398.437	398.76	399.083	399.404	399.727	400.049	400.372	400.694	401.016	401.339	401.66	401.983	402.304	402.627	402.95	403.271	403.594	403.915	404.238	404.559	404.882	405.203	405.526	405.847	406.17	406.491	406.814	407.135	407.456	407.778	408.1	408.422	408.743	409.066	409.387	409.708	410.03	410.351	410.674	410.995	411.316	411.638	411.959	412.282	412.602	412.923	413.246	413.567	413.888	414.21	414.531	414.852	415.174	415.495	415.815	416.136	416.458	416.779	417.1	417.421	417.743	418.064	418.384	418.705	419.027	419.348	419.668	419.989	420.311	420.632	420.952	421.273	421.593	421.914	422.236	422.556	422.877	423.197	423.518	423.838	424.16	424.481	424.801	425.121	425.442	425.762	426.083	426.403	426.723	427.044	427.365	427.686	428.006	428.326	428.647	428.967	429.287	429.607	429.927	430.248	430.568	430.888	431.208	431.528	431.848	432.169	432.489	432.809	433.129	433.449	433.769	434.088	434.408	434.728	435.048	435.368	435.688	436.008	436.327	436.647	436.967	437.287	437.606	437.926	438.245	438.565	438.885	439.205	439.523	439.843	440.163	440.483	440.802	441.121	441.44	441.76	442.08	442.4	442.718	443.037	443.357	443.677	443.995	444.315	444.634	444.954	445.272	445.591	445.911	446.229	446.549	446.868	447.186	447.506	447.825	448.143	448.463	448.782	449.1	449.419	449.739	450.057	450.376	450.695	451.013	451.333	451.65	451.97	452.288	452.607	452.926	453.244	453.563	453.881	454.2	454.518	454.837	455.155	455.474	455.792	456.111	456.428	456.748	457.065	457.384	457.702	458.021	458.338	458.658	458.975	459.294	459.612	459.929	460.248	460.566	460.884	461.202	461.519	461.838	462.156	462.475	462.792	463.109	463.428	463.746	464.063	464.382	464.699	465.016	465.335	465.652	465.97	466.288	466.606	466.923	467.242	467.559	467.876	468.193	468.512	468.829	469.146	469.463	469.782	470.099	470.416	470.733	471.05	471.369	471.686	472.003	472.32	472.637	472.954	473.272	473.589	473.906	474.223	474.54	474.857	475.174	475.492	475.809	476.126	476.442	476.759	477.076	477.393	477.71	478.026	478.343	478.66	478.977	479.293	479.61	479.928	480.245	480.562	480.878	481.195	481.512	481.828	482.145	482.461	482.777	483.093	483.41	483.726	484.043	484.359	484.676	484.992	485.309	485.625	485.942	486.258	486.575	486.889	487.206	487.522	487.839	488.155	488.471	488.788	489.104	489.419	489.735	490.051	490.368	490.684	490.999	491.315	491.631	491.947	492.264	492.578	492.895	493.211	493.527	493.842	494.158	494.474	494.79	495.104	495.421	495.737	496.051	496.367	496.683	496.998	497.314	497.63	497.944	498.26	498.576	498.891	499.206	499.522	499.837	500.153	500.469	500.783	501.099	501.413	501.729	502.043	502.359	502.675	502.989	503.305	503.619	503.935	504.249	504.565	504.879	505.195	505.509	505.825	506.139	506.454	506.769	507.084	507.398	507.714	508.028	508.343	508.658	508.973	509.287	509.601	509.917	510.231	510.546	510.86	511.174	511.489	511.803	512.119	512.433	512.747	513.062	513.376	513.69	514.005	514.319	514.633	514.948	515.262	515.576	515.891	516.204	516.518	516.832	517.147	517.461	517.775	518.088	518.403	518.717	519.031	519.344	519.659	519.973	520.287	520.6	520.914	521.229	521.542	521.856	522.169	522.483	522.797	523.111	523.425	523.738	524.052	524.365	524.679	524.992	525.305	525.62	525.934	526.247	526.56	526.874	527.187	527.5	527.814	528.127	528.44	528.753	529.067	529.38	529.693	530.006	530.32	530.633	530.946	531.259	531.572	531.885	532.198	532.512	532.825	533.138	533.451	533.764	534.077	534.39	534.702	535.015	535.328	535.641	535.953	536.266	536.579	536.892	537.204	537.517	537.83	538.142	538.455	538.768	539.08	539.392	539.705	540.018	540.331	540.642	540.955	541.268	541.58	541.893	542.204	542.517	542.83	543.141	543.454	543.766	544.079	544.39	544.703	545.015	545.327	545.639	545.952	546.263	546.575	546.888	547.199	547.511	547.824	548.135	548.447	548.76	549.071	549.383	549.694	550.007	550.319	550.63	550.942	551.253	551.565	551.876	552.189	552.5	552.812	553.123	553.435	553.746	554.058	554.369	554.681	554.992	555.304	555.615	555.927	556.237	556.55	556.86	557.172	557.483	557.795	558.106	558.416	558.728	559.039	559.351	559.662	559.972	560.284	560.595	560.905	561.217	561.528	561.838	562.15	562.46	562.771	563.083	563.393	563.704	564.015	564.326	564.636	564.947	565.258	565.569	565.879	566.189	566.501	566.811	567.122	567.432	567.743	568.054	568.364	568.674	568.984	569.296	569.606	569.916	570.226	570.536	570.847	571.158	571.468	571.778	572.088	572.398	572.708	573.018	573.329	573.639	573.95	574.26	574.57	574.88	575.19	575.5	575.81	576.12	576.429	576.739	577.049	577.359	577.669	577.979	578.289	578.598	578.908	579.218	579.528	579.837	580.147	580.457	580.767	581.076	581.386	581.694	582.004	582.314	582.623	582.933	583.242	583.552	583.862	584.171	584.479	584.789	585.098	585.408	585.718	586.027	586.335	586.645	586.954	587.263	587.573	587.881	588.19	588.5	588.809	589.119	589.426	589.736	590.045	590.354	590.662	590.972	591.281	591.589	591.898	592.207	592.515	592.824	593.134	593.441	593.751	594.06	594.367	594.677	594.986	595.294	595.603	595.912	596.219	596.528	596.836	597.145	597.454	597.762	598.071	598.378	598.687	598.995	599.304	599.611	599.92	600.228	600.537	600.846	601.153	601.462	601.77	602.077	602.386	602.693	603.002	603.309	603.618	603.926	604.234	604.542	604.85	605.158	605.465	605.774	606.081	606.39	606.697	607.004	607.313	607.62	607.927	608.236	608.543	608.85	609.159	609.466	609.773	610.081	610.389	610.696	611.004	611.311	611.618	611.925	612.234	612.541	612.848	613.155	613.463	613.77	614.077	614.384	614.691	614.999	615.306	615.613	615.92	616.227	616.535	616.842	617.149	617.456	617.762	618.069	618.376	618.684	618.991	619.298	619.604	619.911	620.218	620.524	620.831	621.138	621.444	621.751	622.058	622.366	622.672	622.979	623.286	623.592	623.899	624.205	624.512	624.818	625.125	625.431	625.738	626.044	626.349	626.656	626.962	627.269	627.575	627.881	628.188	628.494	628.8	629.107	629.413	629.719	630.024	630.331	630.637	630.943	631.25	631.556	631.861	632.167	632.473	632.779	633.085	633.392	633.696	634.003	634.309	634.615	634.919	635.226	635.532	635.838	636.142	636.448	636.754	637.06	637.365	637.671	637.977	638.282	638.588	638.894	639.198	639.504	639.81	640.114	640.42	640.726	641.031	641.337	641.642	641.947	642.253	642.557	642.863	643.169	643.473	643.779	644.083	644.389	644.693	644.999	645.305	645.609	645.914	646.219	646.524	646.829	647.134	647.438	647.744	648.048	648.354	648.658	648.962	649.268	649.572	649.877	650.181	650.487	650.791	651.095	651.4	651.704	652.01	652.314	652.618	652.923	653.227	653.533	653.836	654.14	654.446	654.75	655.054	655.357	655.663	655.967	656.27	656.576	656.879	657.183	657.488	657.792	658.096	658.4	658.705	659.009	659.312	659.616	659.92	660.225	660.529	660.832	661.136	661.44	661.745	662.048	662.352	662.655	662.959	663.263	663.566	663.871	664.175	664.478	664.782	665.085	665.389	665.692	665.996	666.299	666.602	666.906	667.209	667.514	667.817	668.121	668.424	668.728	669.031	669.334	669.638	669.941	670.244	670.547	670.851	671.154	671.456	671.759	672.062	672.365	672.669	672.972	673.275	673.578	673.881	674.184	674.487	674.791	675.092	675.395	675.698	676.002	676.305	676.608	676.911	677.212	677.515	677.818	678.121	678.424	678.726	679.029	679.332
-20	-20	4.47359	4.45355	4.20563	4.16026	4.12674	4.10986	4.09829	4.09726	4.09166	4.09464	4.09345	4.1008	4.11411	4.05857	4.02804	4.01609	4.00989	4.01637	4.03793	4.10949	4.14516	4.17987	4.2054	4.25531	4.32996	4.37842	4.4057	4.39995	4.38705	4.36056	4.34627	4.31283	4.28031	4.19904	4.14458	4.08859	4.0703	4.05481	4.04796	4.03931	4.09894	4.12449	4.14154	4.1564	4.17691	4.20472	4.22954	4.25041	4.26855	4.28401	4.30112	4.31294	4.29847	4.2997	4.29484	4.2776	4.24688	4.22046	4.1908	4.16104	4.13232	4.0998	4.06795	4.04209	4.02403	4.00738	4.00958	4.05375	4.19111	4.29731	4.41113	4.52825	4.64825	4.70842	4.74181	4.74595	4.74941	4.75202	4.75307	4.74803	4.69878	4.6518	4.55814	4.42915	4.32151	4.21393	4.14539	4.11997	4.13039	4.17013	4.22157	4.28581	4.35482	4.42333	4.48658	4.55302	4.57619	4.57922	4.58334	4.58959	4.59548	4.57337	4.53423	4.46959	4.38636	4.31465	4.24359	4.17693	4.14888	4.17855	4.2682	4.31266	4.42128	4.54517	4.67235	4.76395	4.78075	4.79705	4.81569	4.83303	4.83974	4.86596	4.8579	4.84815	4.83474	4.76734	4.66009	4.57088	4.48878	4.40577	4.32903	4.25888	4.22195	4.20577	4.18063	4.16532	4.18372	4.18684	4.20327	4.21251	4.22102	4.23382	4.24795	4.21887	4.2072	4.20098	4.19786	4.19049	4.26073	4.2843	4.28879	4.26606	4.21022	4.15293	4.0904	4.02593	3.9725	3.91102	3.85277	3.80261	3.75792	3.72406	3.70553	3.74467	3.82359	3.91562	4.01324	4.12276	4.21564	4.2864	4.36853	4.45917	4.53458	4.60779	4.6493	4.68157	4.69079	4.69109	4.64069	4.57159	4.48229	4.40107	4.33489	4.27584	4.22918	4.22238	4.22699	4.24496	4.27856	4.3132	4.35645	4.396	4.44052	4.46587	4.47723	4.48624	4.50213	4.53086	4.54896	4.56613	4.58937	4.60206	4.60036	4.59175	4.57502	4.55805	4.53572	4.50837	4.47999	4.38924	4.29255	4.17516	4.1608	4.14339	4.19445	4.27189	4.3896	4.50854	4.56136	4.6096	4.65445	4.70226	4.74231	4.78621	4.57842	4.07487	4.07859	4.2253	4.4621	4.59284	4.64169	4.5825	4.54385	4.49669	4.46896	4.44371	4.42764	4.41608	4.41195	4.39381	4.39124	4.39628	4.38968	4.4026	4.42047	4.43201	4.49029	4.49848	4.52388	4.52199	4.49036	4.44996	4.41206	4.33937	4.27589	4.20656	4.13774	4.06505	4.03906	4.01962	4.0027	3.99571	3.98766	4.01948	4.02618	4.04819	4.0615	4.07548	4.09011	4.10242	4.11774	4.13765	4.15135	4.16334	4.17615	4.18266	4.19902	4.20605	4.21257	4.20854	4.21008	4.16877	4.14999	4.13393	4.10916	4.08367	4.06165	4.03499	4.01032	3.98654	3.96203	3.93331	3.90504	3.87566	3.84858	3.82024	3.79443	3.76762	3.74364	3.72098	3.70001	3.68101	3.66195	3.64866	3.6335	3.62613	3.6181	3.61202	3.61517	3.6275	3.64186	3.66678	3.684	3.70906	3.73783	3.78926	3.82063	3.86583	3.91115	3.95772	4.00306	4.04982	4.09483	4.13174	4.13173	4.13578	4.13761	4.13813	4.15816	4.14792	4.13863	4.09283	4.09429	4.10246	4.10831	4.11236	4.11764	4.1176	4.04667	4.00888	3.96775	3.93679	3.88178	3.82244	3.78058	3.76484	3.74584	3.74611	3.75234	3.76839	3.79954	3.87612	3.96238	3.99417	4.00675	4.02906	4.05681	4.05995	4.07221	4.07282	4.08166	4.07931	4.0381	4.02468	4.0231	4.02337	4.0375	4.03459	4.07091	4.14338	4.17163	4.18941	4.21183	4.24217	4.27157	4.30559	4.33864	4.37637	4.41646	4.44894	4.48317	4.51614	4.54709	4.57959	4.60259	4.54551	4.44745	4.36095	4.24378	4.21683	4.18229	4.16467	4.15072	4.1485	4.14035	4.14855	4.16231	4.17435	4.19426	4.21155	4.22216	4.23983	4.25334	4.28174	4.27666	4.28204	4.27353	4.27508	4.26219	4.20375	4.17445	4.13242	4.11345	4.08969	4.07243	4.06263	4.05688	4.04586	4.07549	4.14397	4.20591	4.27618	4.36089	4.44577	4.52717	4.59478	4.64926	4.70505	4.62835	4.58125	4.51332	4.4497	4.37988	4.3191	4.25575	4.20328	4.17386	4.16351	4.25751	4.3324	4.51018	4.70777	4.92181	5.13533	5.35773	5.56922	5.69861	5.7724	5.82199	5.9017	5.92187	5.93985	5.95736	5.92569	5.89337	5.8569	5.84317	5.82425	5.88177	5.93606	6.02666	6.14091	6.29225	6.4371	6.60457	6.77325	6.96478	7.1515	7.3202	7.51022	7.70475	7.92283	8.16107	8.4877	8.84982	9.26502	9.72283	10.2194	10.7078	11.301	11.9453	12.8027	13.6221	14.5833	15.6935	17.0145	18.5653	20.6405	22.741	25.3815	28.4561	32.4332	37.1873	42.6445	49.5976	57.9357	74.9819	86.1402	99.7713	137.887	163.975	202.893	234.96	240.567	239.427	213.063	168.535	141.823	108.421	89.5065	70.4134	58.9964	50.105	41.8519	38.3438	31.3865	28.0265	25.7843	24.3776	22.7351	19.5381	17.4996	15.6657	14.182	13.1981	12.3268	11.5823	10.9816	10.7015	10.4148	10.079	9.76073	9.46763	9.11066	8.81501	8.52626	8.04656	7.79278	7.58652	7.38384	7.19675	7.02045	6.81777	6.50689	6.25918	6.06394	5.95383	5.90056	5.8975	5.8759	5.70893	5.46372	5.36711	5.28692	5.2224	5.19668	5.17195	5.16417	5.17563	5.15472	5.14646	5.13043	5.11684	5.10237	5.07824	4.99067	4.93469	4.89289	4.81969	4.7658	4.71201	4.66237	4.61512	4.57122	4.53068	4.49349	4.46399	4.44944	4.44055	4.42129	4.40392	4.39452	4.38407	4.37331	4.361	4.35228	4.34395	4.36658	4.55286	4.52812	4.46626	4.41794	4.3682	4.31645	4.2723	4.21338	4.16971	4.13303	4.09508	4.07571	4.05421	4.05158	4.04291	4.05402	4.05233	4.10303	4.09441	4.09227	4.08468	4.07333	4.06462	4.04993	4.0031	3.98439	3.95815	3.93152	3.90566	3.88421	3.86997	3.85225	3.8463	3.80813	3.8176	3.83497	3.85699	3.8785	3.90907	3.97477	4.01426	4.029	4.05226	4.05735	4.06664	4.07125	4.07517	4.07501	4.03528	4.02315	4.00667	3.98699	3.96296	3.93524	3.91773	3.89693	3.88362	3.92193	3.97095	3.95194	3.93458	3.91283	3.88521	3.85313	3.82437	3.75853	3.71068	3.66859	3.62598	3.58344	3.55027	3.52112	3.48261	3.46689	3.43319	3.43396	3.4675	3.48166	3.44581	3.39073	3.4039	3.44986	3.49895	3.55645	3.61244	3.66537	3.7196	3.75576	3.7745	3.79691	3.78708	3.78078	3.77544	3.7572	3.74034	3.71029	3.69174	3.63994	3.56751	3.55864	3.54843	3.54539	3.53926	3.54191	3.5404	3.54712	3.55011	3.56024	3.6029	3.5861	3.60173	3.65845	3.70431	3.74354	3.76153	3.77394	3.7827	3.76165	3.73621	3.69867	3.66423	3.64174	3.60806	3.62208	3.62295	3.62621	3.63453	3.61014	3.58566	3.56397	3.53428	3.51944	3.49927	3.46548	3.47388	3.4866	3.49552	3.54901	3.56858	3.60621	3.61958	3.64629	3.65649	3.65979	3.69027	3.71265	3.74405	3.68965	3.66404	3.6256	3.60007	3.57164	3.54882	3.47541	3.45185	3.46368	3.46507	3.43724	3.4196	3.37311	3.41506	3.46247	3.53121	3.58332	3.63815	3.69536	3.74835	3.80138	3.83956	3.86533	3.88976	3.91087	3.93168	3.95164	3.96854	3.98761	3.96699	3.95804	3.94993	3.94636	3.9387	3.92374	3.92314	3.94427	3.98079	4.0089	4.06904	4.08664	4.10694	4.11547	4.12283	4.12962	4.13876	4.14545	4.12023	4.02235	3.93974	3.80993	3.68279	3.55639	3.44406	3.31834	3.28635	3.25552	3.23999	3.23873	3.25266	3.27212	3.30326	3.33952	3.3839	3.434	3.48738	3.54719	3.60471	3.66416	3.72768	3.77149	3.82683	3.82804	3.81168	3.82392	3.8233	3.82609	3.82103	3.81596	3.80556	3.79024	3.77537	3.81333	3.99926	4.25152	4.29649	4.28959	4.28997	4.3143	4.30566	4.27345	4.25438	4.23467	4.1745	4.09084	3.92272	3.75229	3.58914	3.5408	3.49698	3.53133	3.57529	3.62748	3.71257	3.76311	3.81719	3.86272	3.90981	3.94544	3.98432	4.01059	4.03984	4.05459	4.07117	4.07637	4.08042	4.07253	4.07367	4.07095	4.07358	4.07788	4.07841	4.08357	4.05948	4.03859	3.99903	3.98305	3.95201	3.92535	3.89472	3.85915	3.83301	3.80986	3.78408	3.76125	3.73743	3.71634	3.71784	3.69093	3.69433	3.70798	3.81459	3.89083	3.9013	3.89566	3.88707	3.87765	3.86499	3.87392	3.31859	2.95622	1.94285	2.78348	3.67574	4.06129	3.74654	3.63786	3.47627	3.77045	4.19754	3.43363	3.40041	3.47658	3.55525	3.62785	3.69053	3.74568	3.79598	3.8295	3.85987	3.90479	3.95865	4.00544	4.0524	4.09892	4.13583	4.1702	4.19198	4.21139	4.22148	4.22044	4.24213	4.15422	4.06057	3.89715	3.7634	3.6303	3.4708	3.35004	3.26601	3.19289	3.17686	3.17175	3.20464	3.25106	3.29654	3.35093	3.40565	3.4613	3.51971	3.57586	3.63526	3.6803	3.73458	3.77786	3.81451	3.84617	3.88146	3.90691	3.92949	3.94651	3.96615	3.92315	3.86551	3.80516	3.74818	3.67828	3.61818	3.54441	3.47748	3.41567	3.35029	3.2914	3.23996	3.17486	3.15841	3.24271	3.28291	3.337	3.39587	3.45249	3.51931	3.58509	3.65274	3.71629	3.78439	3.84893	3.90694	3.97315	4.03104	4.0577	4.02306	3.99292	3.96105	3.92323	3.88553	3.85667	3.79579	3.80499	3.81174	3.8227	3.84238	3.93952	4.01105	4.01196	4.01421	4.05152	4.0983	4.14004	4.1582	4.11386	4.05924	3.99843	3.93569	3.86989	3.81225	3.74595	3.68325	3.62821	3.5778	3.55139	3.51747	3.57678	3.5812	3.60604	3.62958	3.64954	3.68447	3.71821	3.75443	3.78709	3.81993	3.84426	3.80599	3.51297	3.64876	3.6979	3.59004	3.26135
-20	0	4.1109	4.17907	4.22351	4.27067	4.30011	4.32969	4.34863	4.35864	4.37191	4.37905	4.38599	4.39038	4.39026	4.38067	4.37518	4.35729	4.34792	4.32898	4.3171	4.29881	4.28375	4.26492	4.25805	4.23139	4.22054	4.18561	4.15675	4.1212	4.09048	4.05579	4.02252	3.99097	3.95818	3.93165	3.9038	3.88089	3.91321	3.94778	3.97162	4.01194	4.02231	4.01971	4.02324	4.02764	4.03732	4.03653	4.01917	4.00441	3.99217	3.9823	3.97417	3.96923	3.96508	3.96481	3.96419	3.96775	3.96988	3.97627	3.9805	3.98888	3.99457	4.00395	4.01051	4.01985	4.02684	4.03516	4.04246	4.03096	4.03571	4.05391	4.06102	4.05175	4.0747	4.09433	4.12058	4.14513	4.17463	4.20416	4.23707	4.27022	4.30246	4.29424	4.28949	4.27226	4.26593	4.26893	4.23637	4.17383	4.07662	4.04988	4.01936	4.02741	4.05017	4.06154	4.08139	4.11523	4.16956	4.1869	4.15269	4.10056	4.06974	4.04953	4.01231	4.00817	4.02395	4.02785	4.02825	4.03333	4.0424	4.05173	4.06522	4.10364	4.11629	4.13131	4.14133	4.15355	4.16393	4.17178	4.18165	4.18461	4.19112	4.19135	4.17741	4.15954	4.12875	4.11258	4.0948	4.0841	4.0722	4.04946	4.04713	4.10598	4.14723	4.1652	4.13817	4.10935	4.07621	4.04449	4.00816	3.96705	3.91128	3.88097	3.85171	3.83568	3.84786	3.87287	3.9061	3.94537	3.98606	4.05898	4.1221	4.2084	4.24753	4.28904	4.32729	4.344	4.2642	4.17798	4.08695	3.92986	3.89506	3.86478	3.83817	3.87383	3.92972	3.97361	4.02582	4.06017	4.07253	4.08241	4.09562	4.12504	4.15978	4.17465	4.19901	4.22022	4.24528	4.26652	4.27513	4.28481	4.2935	4.30241	4.31145	4.3201	4.32947	4.33816	4.34804	4.35697	4.36734	4.37654	4.3874	4.39692	4.40821	4.40671	4.40032	4.39602	4.39497	4.3984	4.40562	4.42178	4.49863	4.50901	4.51999	4.52988	4.53905	4.54739	4.49337	4.40392	4.30108	4.23511	4.20541	4.1746	4.18739	4.17285	4.17194	4.16659	4.17102	4.16659	4.17665	4.16853	4.20835	4.24354	4.33467	4.35644	4.3833	4.41079	4.43364	4.4076	4.38079	4.34905	4.31906	4.28612	4.25401	4.22151	4.18881	4.15567	4.12869	4.09296	4.0687	4.03021	4.03445	4.04982	4.06927	4.16749	4.22357	4.28653	4.31098	4.32358	4.36977	4.36507	4.34468	4.3195	4.29867	4.27136	4.24593	4.21605	4.15175	4.12205	4.10176	4.0715	4.05509	4.03763	4.03193	4.03139	4.03183	4.05068	4.0567	4.07411	4.08848	4.10559	4.12178	4.13823	4.14027	4.11836	4.11947	4.09286	4.05701	4.02318	3.98447	3.94408	3.90334	3.85823	3.81677	3.76971	3.71324	3.62594	3.54865	3.44958	3.37398	3.49453	3.50338	3.5128	3.52308	3.60675	3.65471	3.70028	3.75986	3.82848	3.80696	3.757	3.75031	3.73099	3.78303	3.84676	3.90275	3.87129	3.83093	3.8081	3.78491	3.76558	3.75032	3.73961	3.72917	3.72479	3.74017	3.74479	3.73001	3.70887	3.69233	3.67296	3.65717	3.63951	3.62012	3.62597	3.61887	3.58833	3.60989	3.63188	3.66448	3.69272	3.73327	3.77023	3.82817	3.88081	3.91628	3.97547	4.02866	4.08112	4.12167	4.15522	4.03997	3.96189	3.96599	3.98401	4.01631	4.04343	4.06091	4.0534	4.0352	4.01357	4.0116	4.01848	4.02673	4.03722	4.05249	4.03573	4.01889	4.00593	4.0013	3.99532	4.0004	4.01612	4.02929	4.04022	4.0599	4.04291	4.04368	4.06609	4.10177	4.10789	4.08501	4.06065	4.04274	4.08883	4.09444	4.09928	4.09825	4.09985	4.09759	4.09667	4.09567	4.0927	4.09266	4.08919	4.03146	3.97486	3.93728	3.94356	3.94576	3.94875	3.9573	3.97914	4.0122	4.04188	4.04576	4.04531	4.04077	4.00383	3.98032	3.97079	3.90562	3.92364	3.9504	3.97414	4.02321	4.07059	4.11398	4.16721	4.21654	4.26966	4.31618	4.36832	4.40619	4.43671	4.46489	4.48904	4.51308	4.53701	4.55555	4.59985	4.47969	4.46422	4.45396	4.49167	4.51253	4.52297	4.48135	4.45073	4.40902	4.37788	4.35324	4.34159	4.32905	4.32563	4.32698	4.34057	4.42144	4.46456	4.54257	4.61481	4.64451	4.67363	4.70378	4.73539	4.76794	4.80958	4.84503	4.89189	4.89972	4.91261	4.95294	4.97807	5.05192	5.12717	5.1253	5.09858	5.09794	5.15765	5.32357	5.51328	5.67816	5.8412	5.99093	6.08869	6.10862	6.10316	6.04582	6.02862	5.99165	6.01116	6.03327	6.16554	6.2954	6.54489	6.79348	7.07176	7.27299	7.60709	8.03912	8.46044	8.8792	9.4188	9.96979	10.6696	11.4394	12.2954	13.4385	14.7833	15.9559	17.6842	19.6067	21.7519	24.3176	27.1839	30.4557	34.9473	42.1425	50.5876	64.0746	80.4748	97.5954	119.797	141.721	152.509	158.12	141.014	119.649	97.9034	77.7993	61.3367	50.4812	41.9152	34.396	29.0522	25.3585	22.3704	20.1123	17.9583	17.6015	13.6486	13.2396	12.3175	11.4481	10.7016	10.0232	9.41846	9.10665	8.70201	8.38948	8.10641	7.94419	7.79198	7.65873	7.51714	7.34542	7.18639	7.00527	6.79799	6.4861	6.27764	6.23971	6.16167	6.13278	6.08445	5.89135	5.7023	5.53442	5.40945	5.35035	5.31536	5.31591	5.32997	5.3537	5.32245	5.24276	5.17093	5.10548	5.04087	4.97139	4.90996	4.84702	4.74821	4.63407	4.54899	4.48259	4.40834	4.38075	4.36186	4.34643	4.32815	4.29984	4.27965	4.25816	4.27065	4.2959	4.31343	4.34738	4.35256	4.35327	4.35369	4.35201	4.35372	4.35884	4.35276	4.34503	4.33705	4.29917	4.26075	4.22519	4.19006	4.15585	4.12711	4.09721	4.08811	4.08104	4.06655	4.05872	4.0616	4.04517	4.03159	4.00882	3.98805	3.96762	3.95113	3.93498	3.92185	3.90961	3.90049	3.89379	3.88869	3.88636	3.88535	3.88315	3.88669	3.88117	3.88799	3.89095	3.89606	3.92318	3.93885	3.95726	3.97415	3.99497	4.02304	4.06233	4.13261	4.16584	4.19866	4.17212	4.13756	4.03034	3.82766	3.66771	3.61882	3.60234	3.61085	3.63407	3.65416	3.69374	3.71405	3.78571	3.76052	3.74235	3.72168	3.70718	3.69687	3.68646	3.75568	3.78295	3.81898	3.85139	3.89076	3.9045	3.95078	3.9444	3.94127	3.92033	3.85735	3.80237	3.77917	3.74481	3.70787	3.6772	3.64617	3.62167	3.59593	3.55488	3.55325	3.55501	3.57258	3.60071	3.60787	3.60158	3.59651	3.58486	3.58826	3.59186	3.59853	3.60743	3.61728	3.64173	3.65718	3.6771	3.69516	3.71714	3.73615	3.75857	3.75407	3.75034	3.74519	3.73935	3.73444	3.71715	3.70686	3.67906	3.67715	3.66765	3.66848	3.6846	3.70177	3.71071	3.7167	3.72505	3.72458	3.72161	3.71535	3.70348	3.70679	3.71041	3.79517	3.79084	3.79045	3.8455	3.85345	3.86143	3.86817	3.87112	3.81283	3.76308	3.73031	3.71135	3.71461	3.67529	3.61662	3.56635	3.49663	3.46275	3.56439	3.58117	3.61222	3.64097	3.68282	3.74076	3.79832	3.85401	3.90586	3.92399	3.90074	3.86874	3.84281	3.81782	3.82947	3.8406	3.85976	3.88281	3.91043	3.9374	3.96209	3.97164	3.96976	3.95836	3.94867	3.93852	3.91885	3.89844	3.85407	3.82574	3.7969	3.77879	3.76125	3.77457	3.84192	3.87663	3.95803	4.0157	4.00025	3.9733	3.94523	3.91641	3.89164	3.86231	3.83341	3.81073	3.78379	3.75897	3.73719	3.71401	3.69573	3.64984	3.63896	3.63756	3.67906	3.71158	3.74329	3.77199	3.80701	3.83846	3.87043	3.89576	3.91937	3.94419	3.96349	3.97914	3.99572	4.00821	4.02547	4.03843	4.05906	4.08896	4.09349	4.09006	4.08571	4.05502	4.02189	3.99136	3.96259	3.92125	3.91172	3.93421	3.95751	3.96952	3.96269	3.95128	3.90128	3.8665	3.7581	3.74501	3.73861	3.73535	3.73739	3.83568	3.87144	3.91551	3.95942	3.97584	3.98289	3.9667	3.94561	3.92276	3.91719	3.95391	4.02075	4.02468	4.03291	4.04065	4.04419	4.04059	4.02386	3.96888	4.13422	4.11339	4.08618	4.05717	4.02935	4.0049	3.98069	3.96502	3.9631	3.95606	3.94903	3.94373	3.94059	3.92968	3.90313	3.87415	3.84951	3.81858	3.7968	3.77194	3.7549	3.7029	3.69674	3.69173	3.69393	3.75694	3.78829	3.8093	3.82595	3.85561	3.89914	3.93237	3.96561	3.99895	4.03104	4.06429	4.09364	4.12852	4.09587	4.09331	4.05599	4.05346	4.03005	4.01105	4.0334	4.04821	4.0757	4.09612	4.15142	4.19508	4.22116	4.25503	4.28055	4.31853	4.3536	4.3221	4.28473	4.1599	4.08859	3.99085	3.91614	3.83303	3.76011	3.69677	3.61836	3.62806	3.66639	3.69654	3.73717	3.78412	3.82731	3.81678	3.80027	3.78104	3.76813	3.75412	3.73287	3.72988	3.72721	3.72873	3.73265	3.73746	3.74976	3.77372	3.82854	3.85686	3.89006	3.94352	3.96344	3.98632	4.00166	4.01797	3.99197	3.90247	3.79252	3.74039	3.78292	3.81232	3.8435	3.88465	3.89719	3.90522	3.90608	3.91142	3.90917	3.92624	3.92306	3.89332	3.89785	3.89928	3.89579	3.89525	3.89402	3.89227	3.86165	3.8583	3.85145	3.85056	3.8533	3.85803	3.88323	3.90338	3.92102	3.93104	3.92242	3.88014	3.84373	3.80049	3.80775	3.93765	4.0094	4.00373	3.92984	3.85317	3.77548	3.70164	3.62188	3.56401	3.53494	3.55857	3.58478	3.65318	3.72918	3.80178	3.87324	3.92953	3.98032	4.02633	4.03583	4.03345	3.99108	3.94438	3.91726	3.88861	3.86449	3.84457	3.83443	3.82016	3.80561	3.79659	3.78895	3.78342	3.78097	3.781	3.78409	3.78956	3.79821	3.80933	3.8237	3.81532	3.8157	3.81536	3.86696	3.89199	3.92494	3.92994	3.94624	4.0113	4.04312	4.07328	4.08701	4.10218	4.09295	3.97534	3.71613
-20	20	3.32668	3.59808	3.78767	3.86792	3.92326	3.97357	4.00785	4.02991	4.05899	4.07614	4.09944	4.10611	4.09305	4.07381	4.05495	4.0396	4.02328	4.00294	3.98435	3.9647	3.94759	3.88837	3.88022	3.87103	3.86546	3.86042	3.85807	3.88039	3.88506	3.89869	3.9133	3.92708	3.9027	3.8795	3.86631	3.86039	3.87718	3.88455	3.87066	3.82733	3.79738	3.7838	3.77518	3.77694	3.78573	3.79546	3.78327	3.75746	3.75056	3.74237	3.73373	3.71713	3.70718	3.67806	3.6387	3.57654	3.51336	3.47557	3.45464	3.45328	3.45815	3.53368	3.53705	3.54511	3.54543	3.55578	3.58153	3.61906	3.66371	3.69846	3.72039	3.72878	3.70095	3.77107	3.84398	3.91333	3.90894	3.90602	3.92814	3.91831	3.89137	3.90906	3.95476	3.9994	4.01576	4.01917	3.96123	3.91242	3.81981	3.75799	3.85139	3.84536	3.87154	3.89873	3.89789	3.88709	3.85192	3.80715	3.86552	3.85779	3.83829	3.78601	3.70917	3.64899	3.63735	3.70018	3.75139	3.82968	3.85292	3.85452	3.8243	3.70355	3.63627	3.56869	3.50121	3.38398	3.29723	3.28817	3.31038	3.3451	3.38081	3.44456	3.6523	3.71369	3.76951	3.80362	3.76784	3.73929	3.73361	3.7002	3.72097	3.65268	3.26116	3.72422	3.86564	3.89931	3.84539	3.62618	3.5676	3.53971	3.48716	3.46634	3.78907	3.83996	3.86966	3.87903	3.89855	3.87536	3.85947	3.83312	3.80395	3.73018	3.63543	3.54451	3.46098	3.37456	3.37834	3.40911	3.45527	3.52755	3.58489	3.66124	3.736	3.79956	3.91258	3.96021	3.99402	3.99099	3.98958	3.97809	3.95873	3.94021	3.9238	3.91947	3.91235	3.90624	3.90428	3.9081	3.88409	3.90741	3.92382	3.95267	3.98941	4.03141	4.06652	4.08724	4.13058	4.14303	4.14718	4.14674	4.14674	4.13503	4.12706	4.12524	4.09319	4.04625	3.97345	3.91306	3.85642	3.8025	3.75409	3.59496	3.59079	3.60102	3.69435	3.78665	3.87922	3.95723	4.05232	4.12769	4.17562	4.15193	4.13763	4.12343	4.13069	4.19309	4.22761	4.27179	4.27143	4.25266	4.22856	4.20081	4.17386	4.13699	4.10296	4.05787	4.0096	3.95219	3.8942	3.83072	3.77461	3.77067	3.77031	3.78008	3.78827	3.81186	3.84499	3.88063	3.89348	3.86271	3.88288	3.91989	3.97151	3.99742	3.9837	3.93422	3.94018	3.94494	3.9448	3.92382	3.8887	3.86227	3.84998	3.85561	3.87215	3.9033	3.94031	3.97057	3.9589	3.95295	3.94771	3.93691	3.92762	3.91549	3.90616	3.89273	3.8823	3.86721	3.85619	3.84258	3.81839	3.81695	3.81737	3.81953	3.82365	3.8298	3.83773	3.85271	3.86221	3.87793	3.88206	3.89571	3.91194	3.87369	3.85129	3.83435	3.82151	3.83122	3.82131	3.778	3.72781	3.69513	3.69785	3.71364	3.73875	3.77995	3.81906	3.83525	3.81847	3.80315	3.8079	3.80053	3.74941	3.76776	3.78289	3.84297	3.88595	3.91732	3.96267	3.99905	4.03065	4.05969	4.0965	4.10277	4.07397	4.04304	4.00359	3.89665	3.7232	3.5942	3.50197	3.43572	3.39191	3.35968	3.34334	3.27957	3.30727	3.3426	3.38289	3.42876	3.47703	3.52993	3.57793	3.63202	3.68184	3.73127	3.77987	3.83195	3.87597	3.9238	3.95944	3.99162	4.02569	4.04665	4.0635	4.06189	4.0612	4.04666	4.03248	4.00083	3.97054	3.90564	3.84719	3.77213	3.70532	3.63662	3.57124	3.52736	3.47853	3.47233	3.55293	3.59447	3.63576	3.66781	3.68044	3.66337	3.75253	3.78282	3.81404	3.80533	3.79656	3.78685	3.75933	3.7656	3.77515	3.78608	3.83403	3.86227	3.83968	3.76613	3.71109	3.66122	3.60601	3.56819	3.64318	3.69235	3.74227	3.82176	3.90884	3.97288	4.03181	4.0678	4.06089	4.04809	4.03606	4.02376	4.01121	4.02664	3.97315	3.96695	3.94663	3.95305	3.95457	3.96376	3.96772	3.97402	3.98731	3.95655	3.91867	3.87559	3.83466	3.79275	3.7506	3.72019	3.69873	3.64181	3.64264	3.64673	3.65192	3.71494	3.75051	3.79832	3.83292	3.89611	3.93295	3.95252	3.97243	4.01075	4.04679	4.09098	4.13363	4.17411	4.21124	4.22229	4.19176	4.16373	4.12678	4.09121	4.05218	4.01229	3.97605	3.93718	3.90822	3.87676	3.88027	3.87747	3.89478	3.91078	3.93474	3.97522	4.01387	4.05772	4.05282	4.06379	4.08043	4.12856	4.17534	4.24008	4.30252	4.3649	4.42835	4.50477	4.60925	4.68865	4.76018	4.8296	4.89155	4.95199	5.01935	5.08432	5.14439	5.20556	5.2748	5.33637	5.43947	5.56253	5.71558	5.83512	6.01507	6.26603	6.49674	6.82484	7.20097	7.54635	7.9901	8.42643	9.00123	9.59892	10.3548	11.2157	12.3647	13.9437	15.1893	16.9037	18.6595	22.366	27.3895	32.8362	39.4907	49.294	59.8024	70.541	78.4373	80.0888	72.6353	63.8408	53.9783	44.1072	35.4175	28.8702	23.641	19.6994	16.6039	14.2633	12.7446	11.6517	10.4448	9.29617	8.30997	7.6454	7.11461	6.74303	6.49732	6.36712	6.32037	5.83419	5.64202	5.55158	5.52759	5.4479	5.43338	5.40206	5.32024	5.23998	5.08068	4.94279	4.85949	4.8774	4.83504	4.78022	4.49864	4.88045	4.77479	4.69786	4.63299	4.59233	4.56747	4.55418	4.54037	4.51656	4.49259	4.46715	4.42333	4.3836	4.3418	4.30403	4.22203	4.13467	4.03015	3.96775	3.90466	3.88592	3.9774	4.20839	4.2233	4.24579	4.18208	4.11843	4.02696	3.94992	3.88383	3.81509	3.78168	3.77636	3.77746	3.7872	3.79664	3.78334	3.79911	3.80912	3.83379	3.8218	3.8094	3.79642	3.78302	3.76814	3.75419	3.74142	3.73244	3.7209	3.71401	3.70337	3.67805	3.66216	3.67834	3.67658	3.6737	3.67579	3.67394	3.67811	3.67725	3.67975	3.65458	3.62053	3.58966	3.56865	3.5469	3.52703	3.51324	3.50908	3.49876	3.49641	3.52479	3.57008	3.6128	3.69852	3.78938	3.85807	3.87772	3.91045	3.93395	3.93626	3.85342	3.7804	3.71331	3.65804	3.62241	3.57557	3.64645	3.68764	3.73913	3.787	3.7515	3.69927	3.65342	3.60763	3.60999	3.58421	3.56992	3.55219	3.5438	3.53712	3.53137	3.5264	3.52269	3.51981	3.51903	3.51834	3.52049	3.52326	3.5286	3.53538	3.54313	3.55208	3.56018	3.57093	3.57983	3.59141	3.60072	3.61027	3.6196	3.62613	3.63527	3.63907	3.64002	3.64053	3.62686	3.61762	3.60921	3.60736	3.60083	3.5985	3.59377	3.59126	3.5839	3.57099	3.57247	3.57094	3.54947	3.55872	3.56775	3.5795	3.59156	3.60378	3.61849	3.63179	3.63862	3.63362	3.64496	3.61031	3.57674	3.53416	3.48781	3.44018	3.34076	3.26645	3.21158	3.12218	3.12652	3.21467	3.29676	3.39218	3.49225	3.53303	3.5785	3.62827	3.63648	3.63032	3.63241	3.68023	3.71849	3.74866	3.79362	3.80962	3.78481	3.75298	3.72244	3.7034	3.68525	3.65559	3.54552	3.45305	3.3885	3.33764	3.29079	3.24974	3.22568	3.22136	3.24738	3.30366	3.39246	3.51186	3.57942	3.63389	3.6776	3.70499	3.71119	3.71568	3.72195	3.72549	3.72932	3.73149	3.70755	3.65886	3.60607	3.56187	3.52526	3.51281	3.51148	3.52073	3.53083	3.52996	3.50793	3.51236	3.53738	3.57428	3.59892	3.58746	3.57697	3.56975	3.56215	3.5581	3.5526	3.55047	3.5472	3.55466	3.55583	3.55857	3.56216	3.5656	3.55114	3.52531	3.48599	3.47869	3.49766	3.52915	3.56266	3.5789	3.59267	3.60924	3.64181	3.63758	3.63413	3.62572	3.61903	3.60622	3.59628	3.57185	3.56312	3.5471	3.53543	3.51419	3.50448	3.49652	3.51022	3.52203	3.55264	3.535	3.46798	3.40229	3.34453	3.29004	3.27036	3.25506	3.26429	3.28902	3.30951	3.3548	3.41667	3.45605	3.50237	3.5606	3.62252	3.68776	3.75638	3.80821	3.7927	3.77681	3.76039	3.73225	3.71481	3.69776	3.68255	3.66554	3.6515	3.63575	3.62238	3.5672	3.5459	3.55644	3.56159	3.57459	3.56909	3.56439	3.59892	3.60995	3.61596	3.61804	3.61922	3.62086	3.61597	3.61532	3.61285	3.61515	3.61493	3.61798	3.62077	3.62542	3.62874	3.63605	3.62702	3.64625	3.65789	3.6483	3.64206	3.6228	3.61804	3.61638	3.61453	3.6132	3.61419	3.61248	3.61409	3.61486	3.6239	3.61665	3.6182	3.60057	3.58122	3.56897	3.55924	3.5461	3.53276	3.47337	3.43298	3.4108	3.3756	3.37574	3.38288	3.45002	3.48724	3.52577	3.56672	3.62524	3.6606	3.69604	3.72131	3.74066	3.76003	3.76732	3.76689	3.76007	3.75559	3.74263	3.7293	3.70214	3.67983	3.61836	3.59134	3.56986	3.55052	3.53105	3.55467	3.54786	3.55631	3.55735	3.5536	3.57189	3.62949	3.67742	3.70177	3.71666	3.70937	3.69795	3.69344	3.68916	3.69049	3.68889	3.69347	3.6955	3.67424	3.63374	3.5989	3.57008	3.54357	3.54042	3.58245	3.63142	3.67373	3.72389	3.7281	3.71802	3.66736	3.65113	3.64299	3.63026	3.6241	3.61541	3.59467	3.56946	3.54796	3.52811	3.50944	3.49723	3.49767	3.50346	3.47328	3.45341	3.43301	3.42023	3.41039	3.39739	3.38907	3.38013	3.38552	3.37611	3.37227	3.3677	3.36784	3.36809	3.35882	3.33233	3.29004	3.30439	3.33379	3.36671	3.48211	3.58807	3.67901	3.79102	3.85719	3.92817	3.92836	3.83905	3.77309	3.70216	3.63324	3.56524	3.49831	3.4376	3.36441	3.37075	3.36603	3.366	3.36847	3.37689	3.40154	3.43949	3.44423	3.43338	3.41891	3.40619	3.39201	3.38146	3.36892	3.35971	3.35257	3.3506	3.3432	3.34588	3.35588	3.36536	3.38207	3.39781	3.41758	3.44428	3.47067	3.48797	3.49993	3.51768	3.53156	3.55135	3.56718	3.58945	3.63338	3.65584	3.66817	3.67874	3.69557	3.6951	3.6878	3.68814	3.64551	3.43964
0	-20	3.49493	3.71417	4.80861	4.55668	4.44389	4.32927	4.19449	4.10866	4.05642	4.02899	3.98724	3.95788	3.95369	3.95656	3.96548	3.96662	4.00736	4.0678	4.11582	4.18037	4.24279	4.31461	4.31602	4.31774	4.32551	4.34068	4.40159	4.51818	4.57196	4.58105	4.5888	4.58597	4.57975	4.57171	4.47734	4.37037	4.27165	4.20188	4.16854	4.13478	4.11462	4.08789	4.11512	4.14633	4.18502	4.22106	4.25661	4.28844	4.33102	4.36416	4.3539	4.33739	4.32445	4.28	4.28776	4.29201	4.30404	4.31559	4.33174	4.35049	4.36615	4.34586	4.32276	4.29192	4.29287	4.29323	4.31545	4.36593	4.39674	4.43413	4.47066	4.51132	4.54729	4.55839	4.55982	4.54136	4.52158	4.49114	4.4497	4.41926	4.39087	4.36577	4.34007	4.31497	4.29371	4.27254	4.2714	4.26935	4.26233	4.26047	4.25764	4.2547	4.2473	4.24032	4.23314	4.22237	4.19417	4.18162	4.15507	4.12148	4.07887	4.05539	4.02423	3.9947	4.0097	4.04995	4.0867	4.15194	4.18148	4.20709	4.21623	4.20702	4.16382	4.13524	4.08672	4.07377	4.0628	4.05719	4.05197	4.06126	4.07252	4.07923	4.08604	4.09031	4.09243	4.06823	3.97839	3.97545	4.00003	4.01923	4.03789	4.05579	4.0761	4.1002	4.13139	4.22932	4.21353	4.1853	4.15659	4.12	4.0956	4.07272	4.06529	4.10058	4.14776	4.19817	4.24524	4.31277	4.35423	4.39624	4.40781	4.36907	4.32484	4.28326	4.2345	4.18817	4.14309	4.09428	4.06674	4.04129	4.04037	4.04464	4.05735	4.06956	4.10201	4.13914	4.17469	4.20707	4.24905	4.26311	4.21598	4.19833	4.19378	4.12424	4.06671	4.06182	4.03923	4.01951	3.93372	3.81786	3.82584	3.8535	3.89136	3.94306	4.00109	4.06174	4.12766	4.18746	4.25002	4.30568	4.34522	4.28436	3.56606	2.22136	3.53694	4.31156	4.38947	4.41105	4.39961	4.38555	4.36737	4.29448	4.26619	4.26355	4.26394	4.2612	4.26368	4.26809	4.28452	4.32319	4.36676	4.40987	4.43218	4.3916	4.3618	4.33072	4.31626	4.3132	4.32942	4.34104	4.38809	4.42883	4.48603	4.55818	4.62202	4.63732	4.61779	4.61744	4.62816	4.62769	4.62301	4.61274	4.56639	4.48257	4.42061	4.35852	4.36315	4.34197	4.33352	4.26807	4.19172	4.07361	4.07304	4.15404	4.25768	4.28181	4.26781	4.26264	4.23323	4.23691	4.24577	4.2565	4.26896	4.28224	4.29259	4.26518	4.244	4.20403	4.18849	4.19978	4.20793	4.22291	4.23591	4.2616	4.26956	4.2896	4.30963	4.33149	4.35594	4.37343	4.38535	4.37891	4.3773	4.36631	4.35791	4.34684	4.34481	4.33449	4.32188	4.30197	4.26994	4.26633	4.26073	4.26235	4.26391	4.26936	4.27509	4.27894	4.27475	4.28532	4.27026	4.25206	4.23168	4.13142	3.96335	3.96793	3.99178	4.02305	4.04635	4.06105	4.05447	4.02059	3.98807	3.95337	3.91648	3.87786	3.84642	3.80952	3.77691	3.72839	3.72578	3.73475	3.7484	3.87997	3.95095	4.02639	4.06522	4.05403	4.04779	4.04482	4.03504	4.02808	4.02191	4.05453	4.03365	4.00485	3.98065	3.92634	3.88282	3.84635	3.80861	3.73194	3.7314	3.74987	3.8036	3.8459	3.89054	3.93263	3.98023	4.02322	4.06897	4.10952	4.15645	4.19649	4.22747	4.23736	4.24996	4.24898	4.24621	4.24194	4.23184	4.22468	4.21269	4.20415	4.19054	4.17978	4.16575	4.15411	4.14268	4.13227	4.12497	4.11655	4.10499	4.09448	4.08084	4.08313	4.0804	4.07746	4.07032	4.07149	4.0567	4.06238	4.0672	4.07125	4.07993	4.08209	4.08752	4.09537	4.10431	4.11773	4.1376	4.1581	4.18324	4.21125	4.24383	4.27742	4.31511	4.35132	4.39287	4.42949	4.44265	4.42721	4.33986	4.1655	4.13625	4.16245	4.19403	4.23904	4.29634	4.35933	4.39673	4.38155	4.35707	4.33914	4.32759	4.31625	4.30912	4.28701	4.3111	4.33677	4.43544	4.49958	4.5399	4.58121	4.5708	4.54935	4.53016	4.52239	4.50145	4.50435	4.50738	4.52119	4.54086	4.60188	4.63091	4.62239	4.61633	4.63382	4.67723	4.69064	4.71333	4.72094	4.737	4.74435	4.75464	4.75448	4.74579	4.72341	4.67957	4.68899	4.696	4.71529	4.73874	4.75672	4.78357	4.85571	4.90472	4.95518	5.00979	5.0423	5.07346	5.12707	5.15612	5.19559	5.20392	5.21357	5.21961	5.22622	5.24561	5.23204	5.21829	5.20995	5.23085	5.24684	5.28017	5.32049	5.37552	5.45393	5.5494	5.74473	5.94775	6.16407	6.40867	6.67393	6.96181	7.27425	7.61063	7.96488	8.34368	8.68997	9.1039	9.47185	10.178	10.7497	11.4928	12.2074	13.2446	14.3198	15.5597	16.8198	18.5277	20.5767	23.2385	26.5235	30.564	36.6761	43.4274	51.8219	60.7223	80.2751	92.4772	119.801	135.709	151.332	145.682	131.036	110.119	89.1866	71.7633	60.7648	46.9302	39.0015	33.4325	28.6117	24.5628	21.3049	18.8839	16.9365	15.5803	14.3002	13.1926	12.4933	11.4159	10.6743	10.0355	9.45954	8.94879	8.48083	8.07077	7.70683	7.40916	7.12741	6.90125	6.69084	6.47882	6.31588	6.18934	6.1017	6.03233	5.99561	5.97459	5.95717	5.94353	5.91616	5.89447	5.86901	5.82902	5.79779	5.74872	5.68566	5.60453	5.50135	5.31748	5.11789	4.93599	4.76589	4.62709	4.50625	4.59117	4.67487	4.76017	4.76286	4.76728	4.76015	4.7219	4.67521	4.64782	4.627	4.61111	4.59746	4.59372	4.59869	4.60218	4.61264	4.60928	4.58599	4.56427	4.53991	4.51902	4.49025	4.43568	4.37682	4.33022	4.27966	4.23162	4.19091	4.14598	4.12424	4.10162	4.08879	4.06885	4.06233	4.04895	4.0278	4.03694	4.04177	4.05634	4.06693	4.08611	4.10213	4.12395	4.14396	4.16693	4.18999	4.19499	4.19995	4.19223	4.19922	4.14453	4.13061	4.11851	4.14201	4.09648	4.07176	4.04049	4.02296	3.99445	3.96851	3.93212	3.90073	3.86792	3.81214	3.78893	3.76743	3.75266	3.74023	3.74177	3.72624	3.72179	3.71861	3.72115	3.72004	3.7219	3.73643	3.73821	3.73955	3.7368	3.74221	3.7584	3.77305	3.79159	3.80819	3.83498	3.85426	3.88523	3.92442	3.96106	4.07014	4.10206	4.1291	4.15672	4.1734	4.1955	4.18279	4.14722	4.10132	3.9997	3.95911	3.92385	3.93402	3.88883	3.8457	3.8021	3.76289	3.72405	3.69117	3.66054	3.6354	3.62015	3.60206	3.58873	3.57455	3.57842	3.6108	3.63543	3.65069	3.6732	3.70987	3.7601	3.81368	3.86463	3.90155	3.9031	3.90478	3.90881	3.91497	3.91648	3.91511	3.88347	3.83625	3.79337	3.72527	3.63236	3.50684	3.49787	3.505	3.5367	3.65053	3.67803	3.71102	3.73773	3.76312	3.78099	3.80115	3.81194	3.79099	3.79344	3.79737	3.80624	3.81145	3.81955	3.82261	3.82243	3.81994	3.82176	3.82127	3.82564	3.82757	3.834	3.83845	3.84263	3.84854	3.85521	3.86235	3.86928	3.87539	3.88028	3.88363	3.88584	3.88826	3.88906	3.89178	3.89286	3.86461	3.82105	3.77695	3.7117	3.70552	3.70064	3.75267	3.77201	3.74559	3.72181	3.69703	3.68036	3.65569	3.64739	3.63356	3.66954	3.7111	3.84693	3.96659	4.03263	4.02401	4.01894	4.01664	4.01432	4.0197	4.0414	4.05893	4.07956	4.10548	4.10571	4.10833	4.10338	4.10144	4.08029	4.06114	4.05635	4.04363	4.02665	4.01217	3.9979	3.98353	3.97305	3.9602	3.95104	3.93881	3.92872	3.91299	3.91223	3.91455	3.92248	3.93059	3.94677	3.95775	3.97036	4.00899	4.0108	4.01052	4.01007	4.0116	4.00961	4.00964	3.99279	3.97933	3.9589	3.95959	3.96438	3.97015	3.9803	3.98669	3.92496	3.80688	3.68032	3.65099	3.60514	3.63291	3.67724	3.73559	3.80269	3.85748	3.95643	4.00595	4.05805	4.10746	4.15154	4.19809	4.19948	4.19165	4.19289	4.18231	4.18823	4.1381	4.14898	4.15997	4.17182	4.18857	4.19022	4.19336	4.18983	4.19278	4.1874	4.17598	4.15647	4.13191	4.11336	4.08448	4.06935	4.03606	4.03673	4.03744	4.05665	4.06691	4.0608	4.0659	4.02535	3.98684	3.9486	3.9103	3.88313	3.85398	3.8446	3.83445	3.8905	3.93438	4.02058	4.2257	4.185	4.1532	4.10857	4.07552	4.03855	4.01183	3.9611	3.90308	3.89259	3.8858	3.89124	3.9051	3.909	3.91641	3.92194	3.93516	3.9151	3.8828	3.84649	3.80851	3.78641	3.76643	3.76894	3.78878	3.84174	3.89431	3.88492	3.84847	3.82278	3.79895	3.82715	3.85488	3.97876	4.07162	4.15195	4.23543	4.22491	4.21114	4.18472	4.13346	4.09664	4.0537	3.99872	3.95054	3.90406	3.85837	3.82119	3.78379	3.75161	3.72639	3.69529	3.69585	3.75022	3.77631	3.81234	3.85184	3.89589	3.90273	3.87927	3.84152	3.81902	3.79259	3.78783	3.78421	3.9184	3.95943	3.94073	3.90339	3.85176	3.89453	3.95063	3.97706	3.99817	3.99985	3.98358	3.97022	3.95702	3.93975	3.92994	3.92442	3.91573	3.90496	3.91538	3.90517	3.89228	3.87651	3.87021	3.86073	3.85283	3.85321	3.85507	3.86183	3.86474	3.88108	3.89667	3.91662	3.94281	3.96873	4.03522	4.08894	4.12624	4.17788	4.20839	4.2221	4.20008	4.17749	4.15789	4.17297	4.15775	4.14787	4.1339	4.09181	4.05306	3.99942	3.94453	3.92578	3.91241	3.92627	3.90719	3.93074	3.93996	3.94382	3.9464	3.95308	3.96291	3.9719	3.98649	3.99695	4.01526	4.03062	4.0456	4.06293	4.09164	4.11493	4.10903	4.10522	4.09488	4.08145	4.05258	4.0304	3.93028	3.89459	3.87494	3.85631	3.83978	3.82784	3.81548	3.81129	3.80408	3.88023	3.92806	3.96458	4.00025	4.03626	3.99607	3.9529	3.91584	3.87467	3.84306	3.81079	3.86952	3.87547	3.91154	3.94163	3.94379	3.95269
0	0	4.20738	4.26512	4.36591	4.32641	4.44212	4.58942	4.723	4.86298	4.84692	4.8276	4.81302	4.78224	4.11809	4.57105	4.54394	4.50741	4.45999	4.40981	4.36095	4.30711	4.25774	4.23472	4.21934	4.23707	4.26873	4.30363	4.3815	4.45035	4.51696	4.57454	4.60649	4.63179	4.66011	4.63709	4.59487	4.55119	4.50553	4.45683	4.4147	4.37906	4.33874	4.37098	4.42113	4.47959	4.54447	4.59945	4.63936	4.67418	4.70424	4.72306	4.76658	4.76021	4.74689	4.69608	4.657	4.61844	4.58661	4.51098	4.45324	4.39655	4.34414	4.32851	4.31101	4.28905	4.28321	4.29157	4.28778	4.2931	4.29527	4.30163	4.30786	4.31538	4.32439	4.32862	4.33967	4.34336	4.32922	4.30962	4.32167	4.3324	4.34497	4.35895	4.37349	4.3894	4.40653	4.42426	4.44388	4.46283	4.48261	4.50147	4.51818	4.48573	4.45316	4.43307	4.42797	4.43256	4.46396	4.488	4.50563	4.53428	4.5571	4.58035	4.57873	4.58284	4.59393	4.59812	4.59148	4.58338	4.57499	4.56522	4.55605	4.54484	4.53436	4.52211	4.50906	4.49432	4.47161	4.41276	4.35727	4.30334	4.24772	4.19379	4.14506	4.08288	4.06885	4.10787	4.14562	4.18559	4.23167	4.28038	4.32356	4.34841	4.34684	4.35408	4.34741	4.34079	4.32466	4.32168	4.30234	4.28642	4.2671	4.25089	4.2319	4.21411	4.19586	4.176	4.15549	4.1332	4.11358	4.09111	4.07472	4.05273	4.03578	4.0311	4.02752	4.02905	4.03668	4.04505	4.09623	4.1178	4.15113	4.17715	4.23189	4.29811	4.36537	4.42935	4.48804	4.54215	4.5493	4.53983	4.52219	4.52517	4.49118	4.51846	4.51789	4.5083	4.49927	4.48303	4.4757	4.45925	4.45104	4.44121	4.4342	4.4292	4.42423	4.42489	4.42254	4.4253	4.3939	4.35885	4.33219	4.30455	4.2372	4.15797	4.08378	4.0236	3.95044	3.85209	3.86075	3.87352	3.89975	3.94696	4.02184	4.07102	4.11558	4.16231	4.20652	4.24664	4.28757	4.32185	4.32572	4.33867	4.35616	4.37416	4.39081	4.40731	4.4213	4.43494	4.42552	4.37989	4.33646	4.30208	4.31897	4.37075	4.43022	4.46188	4.46057	4.44012	4.41066	4.3825	4.38133	4.36892	4.37421	4.37001	4.3723	4.36959	4.37607	4.38654	4.39887	4.4161	4.41991	4.42084	4.41907	4.42734	4.42859	4.4413	4.45005	4.48609	4.52976	4.57511	4.62452	4.65662	4.64441	4.63709	4.62107	4.61425	4.61237	4.63349	4.65311	4.69541	4.69293	4.69275	4.68868	4.62433	4.58181	4.5346	4.46758	4.40883	4.34796	4.29618	4.28759	4.26258	4.26494	4.29878	4.27001	4.23599	4.20338	4.17347	4.13702	4.10704	4.07554	4.0169	3.98566	3.96107	3.91928	3.88751	3.87977	3.88673	3.90606	3.92182	3.94913	3.97274	4.00454	4.05862	4.09503	4.11403	4.11548	4.13509	4.15097	4.17425	4.21256	4.24637	4.28918	4.33295	4.38725	4.41528	4.44132	4.42554	4.39682	4.35452	4.32547	4.28853	4.2547	4.21847	4.17761	4.14089	4.10459	4.0653	4.05258	4.02524	4.00364	3.99858	4.01603	4.04377	4.06642	4.09325	4.16639	4.17135	4.16445	4.15975	4.15413	4.15077	4.15036	4.0812	4.01015	3.95874	3.86754	3.75586	3.62473	3.51138	3.40089	3.30486	3.2645	3.31743	3.34321	3.36138	3.4323	3.51393	3.59454	3.68286	3.77145	3.8597	3.9506	4.03764	4.12783	4.2103	4.23312	4.22028	4.21064	4.19771	4.18083	4.17115	4.17291	4.17206	4.18981	4.20625	4.24058	4.26353	4.2539	4.24863	4.24102	4.21628	4.13593	4.07853	4.01597	3.96039	3.91934	3.96183	3.9418	3.99807	3.95492	3.948	4.05405	4.15079	4.28147	4.40481	4.44439	4.47886	4.43737	4.40853	4.37834	4.32238	4.2628	4.21082	4.16361	4.11496	4.06733	4.04056	4.00555	3.98863	3.9864	4.00048	4.03589	4.08475	4.15838	4.23804	4.32399	4.40737	4.4939	4.58438	4.66974	4.72855	4.7645	4.80078	4.77196	4.71911	4.67661	4.6249	4.59553	4.57118	4.56538	4.58082	4.7175	4.80241	4.90401	4.96295	4.96089	4.97315	4.96711	4.97831	4.93812	4.9392	4.98018	5.00507	5.01517	5.01937	5.04488	5.07462	5.11239	5.14783	5.19395	5.25142	5.29753	5.37125	5.40918	5.41419	5.41755	5.4047	5.39267	5.43501	5.49729	5.58518	5.70228	5.86066	6.05072	6.23441	6.34991	6.44473	6.49541	6.5386	6.5857	6.65076	6.74109	6.85534	6.98794	7.13502	7.26685	7.4194	7.68219	7.96592	8.26194	8.5263	8.75304	8.99848	9.27417	9.57609	9.93027	10.3867	10.992	11.677	12.5405	13.5536	14.4231	15.503	16.5822	18.0508	19.5267	21.5207	23.3534	25.7165	28.5076	31.914	36.2227	41.3617	48.5392	57.8729	67.9568	81.8585	107.207	129.759	165.661	192.585	225.756	247.921	240.124	208.595	174.066	139.996	112.085	86.0216	69.2391	59.2666	48.6711	42.4306	37.0764	33.1073	29.5456	26.1116	23.3496	20.0862	18.4716	16.9492	15.708	14.5822	13.5182	12.5907	11.8662	11.1659	10.6823	10.3901	10.0674	9.7919	9.55624	9.25184	8.90624	8.58428	8.29771	8.01711	7.77004	7.52789	7.28714	7.12513	6.98068	6.85478	6.74154	6.63647	6.54671	6.45794	6.34651	6.25316	6.14936	6.04539	5.93767	5.83792	5.73799	5.64815	5.56295	5.47928	5.42682	5.38405	5.39868	5.39401	5.38026	5.21754	5.06072	4.90802	4.79042	4.66388	4.65713	4.62949	4.6329	4.65045	4.67167	4.70004	4.78157	4.78396	4.77464	4.77012	4.73167	4.69712	4.65247	4.63059	4.58406	4.53471	4.52969	4.53271	4.54498	4.55184	4.61107	4.65443	4.71828	4.71788	4.71004	4.68987	4.6712	4.64019	4.6112	4.54549	4.46417	4.41599	4.37945	4.33992	4.30804	4.27242	4.24766	4.24364	4.17339	4.11091	4.06729	4.20143	4.18859	4.17488	4.16289	4.14882	4.13723	4.1258	4.12019	4.11025	4.1028	4.08423	4.06101	4.03124	4.00497	3.98306	3.95761	3.93432	3.90885	3.88255	3.85803	3.82977	3.80776	3.77659	3.71515	3.71581	3.71474	3.72276	3.73031	3.74824	3.83691	3.88234	3.89108	3.8901	3.89804	3.89964	3.97482	3.97296	3.85933	3.79497	3.73783	3.67253	3.62015	3.55135	3.51909	3.47712	3.45144	3.52947	3.62699	3.72054	3.82313	3.91459	4.00474	4.08554	4.15289	4.17334	4.1543	4.1047	4.02064	3.94105	3.84719	3.75813	3.66373	3.57231	3.48838	3.37573	3.3655	3.42299	3.4669	3.52383	3.57602	3.64224	3.69674	3.75697	3.81231	3.89524	3.91336	3.92284	3.92392	3.88669	3.86054	3.82994	3.79393	3.76103	3.69376	3.66265	3.63426	3.61044	3.58702	3.56648	3.5494	3.53299	3.52091	3.50915	3.51837	3.51613	3.52445	3.53176	3.54099	3.55753	3.57044	3.57491	3.59701	3.62541	3.65608	3.69035	3.72391	3.75929	3.79344	3.82667	3.85817	3.88845	3.91898	3.94621	3.97497	3.99743	4.02187	4.03823	4.05727	3.80637	4.05401	4.02705	3.96435	3.90525	3.83161	3.76896	3.7278	3.73221	3.77831	3.82906	3.88305	3.83149	3.78499	3.72909	3.68281	3.63433	3.5837	3.58618	3.59694	3.72521	3.79091	3.85253	3.91815	3.9828	4.04456	4.09313	4.09087	4.08758	4.08817	4.07201	4.06251	4.04524	4.03061	4.00306	3.96193	3.91909	3.87343	3.85011	3.81711	3.76744	3.72158	3.67721	3.63593	3.59887	3.5959	3.58181	3.56352	3.54199	3.53747	3.54983	3.56071	3.57823	3.59335	3.61355	3.63312	3.6533	3.67389	3.69369	3.71487	3.73627	3.75883	3.78127	3.80458	3.82809	3.8543	3.87742	3.9336	3.94903	3.97216	3.97204	3.97625	3.97099	3.9626	3.92527	3.89246	3.85416	3.77363	3.82367	3.80906	3.79718	3.78553	3.82542	3.83618	3.85198	3.86715	3.8462	3.89792	3.94901	4.00456	4.06426	4.12204	4.18927	4.18871	4.28437	4.29396	4.30222	4.3098	4.30777	4.32059	4.35557	4.39406	4.41949	4.41538	4.39394	4.34362	4.32943	4.31614	4.28203	4.24392	4.20057	4.1612	4.12447	4.10636	4.0473	4.01582	3.96292	3.91593	3.86631	3.81875	3.77773	3.74359	3.7209	3.69203	3.6748	3.68119	3.68425	3.78253	3.81589	3.85781	3.89174	3.93589	3.9616	4.00372	4.04491	4.08474	4.12486	4.16374	4.2014	4.23939	4.27047	4.28726	4.27	4.25342	4.23126	4.20458	4.17943	4.15461	4.12154	4.11014	4.02519	3.94379	3.84789	3.75488	3.66331	3.55011	3.45989	3.38791	3.45455	3.53022	3.60724	3.68277	3.7706	3.8692	3.98306	3.97844	3.96747	3.96202	3.97472	3.98625	4.00304	4.02343	4.04893	4.06666	4.09039	4.10846	4.12992	4.14797	4.14678	4.12744	4.11238	4.09061	4.07339	4.05563	4.0665	4.05523	4.0294	4.04833	4.00181	3.9607	3.91727	3.87568	3.83487	3.78716	3.74137	3.68886	3.63956	3.59146	3.54341	3.50078	3.45719	3.41752	3.38045	3.35187	3.32193	3.29929	3.34729	3.34612	3.35482	3.36842	3.38518	3.39944	3.41946	3.43546	3.43422	3.47472	3.51568	3.55977	3.60164	3.64747	3.70822	3.73609	3.76202	3.80303	3.81499	3.82798	3.799	3.77258	3.75928	3.70064	3.67732	3.64263	3.64699	3.65854	3.66775	3.68901	3.70523	3.72941	3.75099	3.7791	3.82983	3.86135	3.89524	3.92482	3.95622	3.9813	4.00637	4.02917	4.04571	4.06548	4.07259	4.06713	4.05177	4.06055	4.04535	4.04671	4.03085	4.03489	4.05072	4.09353	4.11754	4.13906	4.16541	4.18402	4.21079	4.23042	4.2441	4.25815	4.28795	4.29572	4.18169	4.01908	3.22588	3.40128	3.90159	3.81778	3.73098	3.64484	3.56645	3.50266	3.45165	3.4734	3.50201	3.52357	3.5529	3.61222	3.67011	3.73906	3.80627	3.87427	3.93553	4.00473	4.00997	4.01509	3.9567	3.87852	3.61326
0	20	5.12067	5.02269	4.98482	4.95352	4.86828	4.8138	4.78446	4.75976	4.74919	4.69757	4.64739	4.59836	4.55743	4.51593	4.4798	4.44645	4.42118	4.41241	4.39951	4.43074	4.45426	4.50286	4.55985	4.6153	4.67445	4.73295	4.79234	4.84913	4.90271	4.94717	4.94332	4.92983	4.90112	4.85708	4.81813	4.77197	4.72439	4.67867	4.63884	4.59847	4.53913	4.52666	4.53111	4.53665	4.54551	4.55835	4.5777	4.59021	4.59413	4.61758	4.63209	4.65452	4.67629	4.70498	4.71791	4.73707	4.73503	4.71692	4.62526	4.48017	4.43737	4.39609	4.36315	4.3957	4.41458	4.44623	4.48996	4.51867	4.49024	4.46417	4.43421	4.41781	4.41319	4.48361	4.51065	4.55986	4.6017	4.64364	4.68459	4.71164	4.71669	4.71801	4.72514	4.71245	4.72159	4.67614	4.6458	4.6166	4.60289	4.58057	4.53048	4.50977	4.4307	4.34368	4.26842	4.25631	4.28521	4.34294	4.39848	4.45154	4.53241	4.59613	4.65308	4.6825	4.67232	4.65029	4.64618	4.62278	4.61964	4.58431	4.55633	4.53115	4.50743	4.48499	4.46239	4.4453	4.41465	4.44413	4.45798	4.47872	4.48651	4.49334	4.49681	4.50442	4.50795	4.47874	4.44821	4.41341	4.39757	4.35703	4.33004	4.3653	4.40002	4.44791	4.53382	4.53215	4.52521	4.51676	4.50913	4.50411	4.49723	4.49623	4.49135	4.49745	4.49689	4.52581	4.50592	4.47093	4.44281	4.41809	4.37472	4.31057	4.26873	4.35155	4.46059	4.51467	4.55844	4.57321	4.6069	4.64319	4.67676	4.76086	4.82244	4.8828	4.9453	4.94403	4.91807	4.89792	4.84347	4.79365	4.74102	4.69784	4.70685	4.6974	4.67485	4.64606	4.58288	4.52767	4.46565	4.40728	4.3458	4.30446	4.29966	4.2941	4.24737	4.20219	4.14884	4.19009	4.24213	4.36115	4.46457	4.58173	4.66881	4.71827	4.71966	4.70019	4.68756	4.66166	4.63037	4.62906	4.6241	4.6373	4.64912	4.66976	4.68591	4.71206	4.72792	4.72238	4.69374	4.65702	4.70913	4.79877	4.6726	4.49104	4.19737	4.22096	4.29213	4.62389	4.93315	4.87167	4.6356	3.88848	4.28514	4.63621	4.6601	4.67843	4.63792	4.61956	4.65796	4.68602	4.74291	4.79381	4.85053	4.8529	4.84451	4.80287	4.75023	4.69523	4.64664	4.6025	4.57608	4.55215	4.58605	4.60992	4.64188	4.7012	4.75286	4.79349	4.72081	4.71438	4.70812	4.70196	4.69415	4.68488	4.67688	4.64142	4.55723	4.4389	4.32075	4.22879	4.20936	4.29944	4.4575	4.59339	4.60043	4.61884	4.63795	4.66544	4.68513	4.65492	4.157	4.17941	4.31633	4.40101	4.41543	4.42223	4.42338	4.41979	4.413	4.40346	4.3918	4.3791	4.36454	4.35198	4.33641	4.32185	4.31185	4.30068	4.28882	4.28302	4.27634	4.26664	4.27984	4.29159	4.30913	4.32697	4.3483	4.37134	4.38435	4.35201	4.31482	4.28032	4.24059	4.20018	4.17508	4.14809	4.12844	4.09254	4.07701	4.06368	4.0632	4.08256	4.09666	4.13296	4.16016	4.18111	4.21172	4.24188	4.25619	4.25299	4.22921	4.21036	4.14929	4.11454	4.12519	4.1173	4.09895	4.1202	4.14652	4.17056	4.23563	4.29022	4.33432	4.38775	4.41776	4.45343	4.46503	4.47269	4.46807	4.47353	4.46011	4.41319	4.35808	4.29311	4.2477	4.21146	4.16815	4.12789	4.12174	4.14394	4.16669	4.19717	4.23108	4.29751	4.29648	4.30212	4.29429	4.29404	4.28823	4.28903	4.28446	4.28463	4.27476	4.2352	4.22329	4.20311	4.22382	4.28714	4.34026	4.40419	4.46068	4.4996	4.53206	4.58241	4.6355	4.68722	4.73858	4.79215	4.8421	4.803	4.76516	4.66399	4.56052	4.49253	4.45984	4.4944	4.44312	4.37519	4.29758	4.16855	4.14804	4.13181	4.19431	4.21657	4.25195	4.29044	4.32973	4.36805	4.40775	4.44771	4.48564	4.52501	4.55973	4.59527	4.62645	4.66036	4.67393	4.68526	4.70647	4.72615	4.74543	4.7632	4.75268	4.73905	4.72488	4.71401	4.70895	4.70104	4.69665	4.74366	4.7996	4.85434	4.91489	4.93672	4.95061	4.96254	4.97643	4.98855	5.00259	5.01529	5.02987	5.04583	5.05367	5.04133	5.03234	4.97736	4.95698	4.95087	5.04436	5.10745	5.12237	5.14209	5.15872	5.19512	5.23356	5.24849	5.27059	5.29767	5.30806	5.35191	5.40657	5.47068	5.54288	5.6291	5.74586	5.80927	5.88358	5.98289	6.09457	6.22164	6.35944	6.52291	6.7573	6.95202	7.11863	7.30147	7.50234	7.71505	7.95126	8.20263	8.48803	8.84769	9.13524	9.5171	9.89597	10.2523	10.5618	10.7933	11.0469	11.8072	12.5536	13.3307	14.3752	15.4152	16.6676	18.0383	19.7627	21.5895	24.0071	26.6187	30.3881	34.9935	40.3012	46.3567	55.1207	65.817	81.2418	100.81	125.907	153.153	184.918	221.904	238.916	240.352	215.039	176.419	143.554	115.161	99.2198	78.2442	60.39	51.5966	44.8812	39.4898	34.6706	30.6467	27.0658	24.0345	21.5108	19.3358	17.5353	16.0825	14.8622	13.8623	13.047	12.2916	11.6129	10.9347	10.4494	9.92617	9.52839	9.15377	8.82061	8.51367	8.24185	7.98945	7.80248	7.64967	7.51316	7.39	7.23516	7.07089	6.92054	6.78292	6.65765	6.54121	6.43659	6.33711	6.24944	6.16569	6.08473	6.01021	5.93745	5.8701	5.7981	5.74172	5.68244	5.62797	5.5747	5.51087	5.44921	5.39188	5.34215	5.29409	5.25426	5.21504	5.18055	5.15424	5.12771	5.09323	5.06779	5.04393	5.02409	5.00286	4.99639	4.99	4.98464	4.97086	4.95128	4.95823	4.96041	4.98446	5.00855	5.02474	5.04686	5.06672	5.04722	5.038	5.03257	4.99384	4.96364	4.93116	4.90475	4.88921	4.84678	4.77668	4.68286	4.60568	4.51065	4.45645	4.40506	4.38857	4.3654	4.37639	4.38387	4.45685	4.48911	4.52871	4.52872	4.5538	4.5625	4.56593	4.5497	4.50518	4.42718	4.34518	4.25606	4.16938	4.1084	4.05819	4.01246	4.00896	4.01532	4.05915	4.11976	4.22955	4.25213	4.24029	4.21439	4.20829	4.20195	4.20224	4.20188	4.20054	4.2247	4.22346	4.23625	4.22459	4.19667	4.17777	4.14584	4.12483	4.10265	4.04291	4.07077	4.09707	4.13711	4.15651	4.171	4.18823	4.2056	4.24346	4.273	4.28709	4.28745	4.2864	4.28409	4.28194	4.27703	4.27247	4.26609	4.26198	4.26887	4.24844	4.22731	4.20006	4.13677	4.0761	4.02604	3.96984	3.9088	3.87227	3.88024	3.8774	3.86435	3.88027	3.8873	3.90289	3.91306	3.93354	3.95042	3.97384	3.99542	3.98858	3.97952	3.96928	3.95845	3.94952	3.9308	3.911	3.89659	3.88321	3.8757	3.88933	3.89911	3.93295	3.95676	3.938	3.89556	3.85411	3.86551	3.95758	3.98128	3.97374	3.95809	3.94752	3.92999	3.91485	3.89474	3.87764	3.85502	3.81209	3.80645	3.82457	3.91262	3.97101	4.0052	4.02761	4.00766	3.97215	3.93276	3.88396	3.82167	3.7648	3.80545	3.86268	3.90764	3.92231	3.93543	3.95149	3.9745	4.00362	4.02117	3.95256	3.90111	3.86716	3.84064	3.81729	3.80631	3.82853	3.82305	3.79273	3.7454	3.67434	3.61432	3.65452	3.66058	3.73395	3.79206	3.82407	3.83934	3.8193	3.75513	3.69688	3.63549	3.58031	3.52944	3.48852	3.45543	3.51041	3.58643	3.78765	3.83593	3.88141	3.89942	3.87347	3.87556	3.8785	3.8863	3.89409	3.90388	3.91738	3.93295	3.95393	3.97647	4.00831	4.0454	4.0907	4.12175	4.13542	4.14958	4.15964	4.16106	4.16647	4.12425	4.0711	4.01616	3.98733	4.01005	4.10252	4.12969	4.11596	4.09403	4.07883	4.05795	4.04258	4.02476	4.01077	3.99816	3.98748	3.98241	3.97735	3.97029	3.98326	3.96377	4.01311	4.06935	4.15707	4.23805	4.26101	4.28219	4.31211	4.33709	4.36098	4.38484	4.40385	4.42301	4.43298	4.45193	4.46297	4.47593	4.47327	4.45259	4.43119	4.4131	4.38974	4.37161	4.33216	4.2792	4.22611	4.16607	4.1119	4.08668	4.07383	4.05754	4.05282	4.03029	4.00632	3.98654	3.95737	3.95785	3.97417	4.00377	4.04164	4.07987	4.11262	4.15278	4.18364	4.21364	4.23314	4.24991	4.26643	4.27967	4.29353	4.30287	4.31364	4.3191	4.31727	4.3092	4.25529	4.20186	4.14688	4.09857	4.04563	4.00366	3.96602	4.13883	4.13618	4.14805	4.13377	4.11964	4.09411	4.00106	3.9252	3.90763	3.89341	3.89122	3.9023	4.00401	4.07943	4.09176	4.10287	4.114	4.12631	4.13809	4.12785	4.07064	4.02354	3.97935	3.94174	3.90889	3.886	3.87428	3.85994	3.88616	3.9137	3.9475	3.98383	4.02318	4.06809	4.11417	4.15175	4.21607	4.24325	4.27414	4.29722	4.3121	4.31841	4.31883	4.3135	4.31161	4.30287	4.28134	4.27913	4.27406	4.26975	4.26312	4.25747	4.22612	4.21614	4.22226	4.21404	4.21345	4.19304	4.17266	4.15141	4.12781	4.1031	4.06815	4.03596	4.00725	3.97857	3.94623	3.93752	3.96021	4.03433	4.06731	4.11214	4.15881	4.11036	4.06026	4.0176	3.97459	3.93578	3.89923	3.86872	3.83743	3.80674	3.8069	3.82388	3.8227	3.82601	3.83941	3.84493	3.88256	3.89933	3.92727	3.93143	3.92491	3.89193	3.92644	3.96168	4.01659	4.05953	4.11267	4.1877	4.23454	4.27838	4.30314	4.31757	4.32346	4.32475	4.29309	4.2212	4.16815	4.12522	4.04692	4.00565	3.97397	3.95497	3.95022	3.95458	3.99506	4.02641	4.06028	4.10421	4.14266	4.19881	4.24452	4.28793	4.32616	4.37032	4.3607	4.3664	4.34438	4.32293	4.30493	4.28775	4.285	4.27314	4.27105	4.26955	4.27588	4.28122	4.28119	4.3006	4.31387	4.32211	4.33856	4.35727	4.34549	4.35009	4.35487	4.36346	4.34494	4.3321	4.31389	4.30562	4.29526	4.31143	4.31992	4.32116	4.32921	4.30729
20	-20	5.08254	5.31585	5.41966	5.49175	5.48631	5.4694	5.44278	5.37545	5.32744	5.27651	5.24592	5.22699	5.15203	5.161	5.1767	5.19544	5.20938	5.21197	5.2148	5.23455	5.23643	5.21562	5.22615	5.23485	5.24938	5.28287	5.29027	5.28924	5.27545	5.24575	5.22466	5.20576	5.20639	5.24548	5.24591	5.27985	5.24814	5.22582	5.21237	5.19631	5.15874	4.98004	5.14158	5.18654	5.22549	5.24141	5.23443	5.21078	5.15654	5.11391	5.10287	5.06558	5.0242	5.00172	5.04502	5.06502	5.08601	5.10914	5.15807	5.18141	5.14839	5.10208	5.08505	5.08141	5.07317	5.02914	4.9871	4.9727	4.9835	5.00635	5.03217	5.07408	5.10321	5.16717	5.15672	5.12133	5.12993	5.13786	5.17908	5.2135	5.24654	5.26981	5.26166	5.23853	5.23898	5.23058	5.18939	5.1558	5.1024	5.02479	4.95956	4.87545	4.77314	4.72562	4.67725	4.66042	4.68594	4.67757	4.66412	4.66321	4.66051	4.60929	4.57603	4.549	4.54817	4.58379	4.71927	4.79966	4.88656	4.91708	4.93447	4.92797	4.93373	4.94066	4.93226	4.9135	4.88857	4.85344	4.81094	4.7869	4.7756	4.75168	4.68464	4.5922	4.4853	4.39605	4.37935	4.36979	4.3758	4.46681	4.57043	4.68959	4.79478	4.92427	4.9686	4.97733	4.96366	4.89747	4.82169	4.75134	4.70343	4.6551	4.63842	4.63478	4.55017	4.47411	4.41503	4.45513	4.53499	4.61214	4.74533	4.8259	4.85152	4.87394	4.91287	4.96425	5.03967	5.09453	5.14684	5.18599	5.19767	5.19018	5.2239	5.18328	5.14351	5.11464	5.02	4.9001	4.81798	4.80373	4.80278	4.82794	4.88033	4.9732	4.97028	4.97299	4.94001	4.83993	4.77448	4.66625	4.56969	4.58424	4.60511	4.65957	4.74234	4.8327	4.98725	5.10781	5.16413	5.22105	5.25668	5.26685	5.28543	5.26769	5.21513	5.12138	5.00609	4.92886	4.73892	4.48704	4.27717	4.02845	4.28736	4.41498	5.16527	3.80957	3.25109	4.06419	5.24751	4.28321	4.74958	5.11394	5.37316	5.3088	5.27174	5.22122	5.20916	5.22494	5.23393	5.22771	5.24147	5.25331	5.27432	5.29407	5.31815	5.30658	5.30075	5.29657	5.27796	5.26901	5.26809	5.23213	5.24905	5.25491	5.28672	5.26427	5.23841	5.20875	5.14604	5.08286	5.0471	4.98045	4.95381	4.92946	4.92287	4.92736	4.93808	4.95573	4.92706	4.90338	4.8759	4.8435	4.83188	4.83153	4.80675	4.78494	4.76776	4.73214	4.75189	4.77055	4.80211	4.88002	4.99651	5.10712	5.05333	5.04282	4.99801	4.97236	4.94243	4.936	4.96238	5.00107	5.03442	5.05984	5.08329	5.0842	5.15058	5.20963	5.26429	5.30377	5.33706	5.38387	5.39945	5.40902	5.40904	5.39874	5.3212	5.26247	5.18547	5.11736	5.05015	4.96457	4.839	4.72956	4.6277	4.59039	4.61947	4.63765	4.66683	4.70089	4.7362	4.77769	4.81965	4.86619	4.90673	4.95811	4.99928	5.00894	5.01805	4.98152	4.94512	4.89707	4.82797	4.77497	4.78082	4.83148	4.88859	4.94693	5.0155	5.10299	5.16948	5.20765	5.24464	5.28993	5.28842	5.23529	5.20236	5.13594	5.09248	5.04518	5.04543	5.06409	5.10927	5.14028	5.13686	5.12612	5.13639	5.15878	5.16407	5.16711	5.17081	5.17289	5.17892	5.1389	5.08967	5.10112	5.11055	5.1345	5.15643	5.18875	5.23054	5.27586	5.31014	5.32784	5.32748	5.29315	5.27568	5.23146	5.17155	5.12433	5.02496	4.9716	4.89924	4.86164	4.83907	4.84002	4.8371	4.89841	4.95088	5.00496	5.03654	5.08209	5.13941	5.171	5.18458	5.17125	5.12361	5.0586	5.06404	5.06181	5.07338	5.08899	5.10662	5.13769	5.15926	5.24856	5.29865	5.28675	5.24434	5.18831	5.1536	5.08532	5.05119	5.02493	5.02094	5.04202	5.03679	4.97931	4.98744	4.9945	5.0871	5.13973	5.19677	5.24464	5.28728	5.3205	5.33629	5.35485	5.3083	5.23441	5.1638	5.09329	5.00297	4.93671	4.86815	4.80953	4.7404	4.71982	4.74281	4.80257	4.87692	4.99785	5.15109	5.22988	5.3286	5.39222	5.44184	5.43382	5.38458	5.33773	5.28823	5.23646	5.20372	5.19546	5.12948	5.14235	5.19282	5.22663	5.24702	5.2624	5.22423	5.23325	5.27281	5.30967	5.37806	5.39097	5.40014	5.43524	5.48777	5.53487	5.57024	5.60895	5.64215	5.64887	5.59753	5.54358	5.49063	5.44156	5.41067	5.35311	5.35884	5.39148	5.47377	5.61293	5.75253	5.85073	5.94694	6.06651	6.17011	6.28307	6.41708	6.57803	6.75095	6.90718	7.09605	7.32112	7.55038	7.80063	8.0587	8.33727	8.65294	9.00963	9.36082	9.75547	10.176	10.7568	11.1587	11.625	12.2342	13.1827	14.226	15.7941	17.8508	19.9122	22.3116	25.6578	30.7829	36.5073	46.0919	56.9677	65.3951	82.2385	91.6042	100.598	100.219	93.8684	80.1897	66.5214	54.8217	43.0808	35.0876	30.0018	26.4347	23.064	19.7424	17.699	16.0701	14.5504	13.2367	12.1609	11.2019	10.2929	9.50873	8.94237	8.44195	8.04533	7.76152	7.57272	7.44019	7.38748	7.26869	7.14854	7.08822	7.03936	6.96192	6.90507	6.86319	6.79516	6.74585	6.69117	6.63607	6.50609	6.37774	6.20361	6.02158	5.92323	5.78708	5.62383	5.48826	5.33063	5.27618	5.24639	5.24943	5.26754	5.25773	5.26815	5.25517	5.27648	5.2895	5.30936	5.3201	5.33715	5.35963	5.3748	5.40038	5.36239	5.27107	5.14886	5.04249	4.95735	4.90499	4.87711	4.87954	4.87096	4.90728	4.9075	4.89768	4.90646	4.88735	4.87517	4.81059	4.75445	4.70497	4.6746	4.65279	4.72227	4.78513	4.84544	4.8712	4.89972	4.93292	4.96436	5.01025	5.03438	5.07923	5.03818	5.033	5.00873	4.8731	4.69694	4.53467	4.37525	4.24143	4.33116	5.08554	5.20093	5.1296	3.00279	3.97682	4.59151	5.08004	5.06564	4.69826	4.84208	4.92065	4.83097	4.76262	4.72658	4.71504	4.74528	4.72471	4.69959	4.6806	4.66125	4.65603	4.6513	4.67597	4.65802	4.64327	4.63085	4.63207	4.64131	4.64246	4.63733	4.6447	4.67157	4.73533	4.71314	4.69773	4.67665	4.69322	4.71361	4.71179	4.74192	4.7662	4.79947	4.82319	4.62499	4.54335	4.45818	4.40517	4.37327	4.36594	4.39176	4.44421	4.39329	4.30813	4.26306	4.2014	4.16734	4.12788	4.08856	4.09606	4.10538	4.12632	4.14946	4.17713	4.20796	4.24038	4.27295	4.30671	4.34036	4.37931	4.40109	4.4366	4.46859	4.50156	4.45748	4.42804	4.36084	4.32422	4.26449	4.22297	4.18194	4.14475	4.11474	4.10414	4.09425	4.10491	4.12589	4.25905	4.36583	4.53418	4.69685	4.74648	4.75178	4.77966	4.79913	4.78381	4.73515	4.70737	4.66999	4.63389	4.61624	4.57847	4.54244	4.53527	4.47109	4.43676	4.34858	4.32167	4.32868	4.45194	4.51598	4.60277	4.68842	4.68153	4.68348	4.67917	4.6928	4.71211	4.71001	4.70501	4.69625	4.63797	4.58319	4.53557	4.42443	4.32272	4.25607	4.2347	4.25779	4.30448	4.38003	4.47983	4.49333	4.52249	4.55004	4.60213	4.63561	4.65656	4.6472	4.64404	4.66055	4.66749	4.68147	4.76317	4.7382	4.73958	4.71132	4.67594	4.64813	4.56489	4.55688	4.55803	4.55922	4.568	4.56717	4.53928	4.54617	4.54073	4.56543	4.59618	4.64156	4.66923	4.71037	4.74376	4.73317	4.72322	4.70854	4.7024	4.654	4.63645	4.62349	4.61985	4.60724	4.5612	4.55211	4.55275	4.55099	4.55426	4.56249	4.56689	4.58497	4.65115	4.68118	4.73009	4.70101	4.66116	4.52544	4.44941	4.36059	4.28742	4.20662	4.12365	4.06099	4.00982	4.0296	4.13918	4.208	4.29185	4.37995	4.47011	4.55991	4.65462	4.72417	4.72224	4.66204	4.60333	4.57069	4.51562	4.4793	4.44646	4.43344	4.42759	4.44397	4.47018	4.44191	4.42471	4.43987	4.45906	4.54092	4.61843	4.6493	4.70373	4.75876	4.81913	4.86651	4.91638	4.96892	4.97575	4.94269	4.89251	4.86427	4.85527	4.83747	4.84791	4.82617	4.8359	4.84619	4.85396	4.85324	4.85446	4.81801	4.76058	4.74869	4.74018	4.72509	4.73547	4.76646	4.79671	4.84133	4.87164	4.92045	4.91349	4.89983	4.88459	4.86754	4.84932	4.83169	4.81472	4.79835	4.7908	4.77537	4.7629	4.75364	4.76159	4.77079	4.78212	4.79995	4.82041	4.84838	4.85372	4.86861	4.87865	4.88662	4.89294	4.90776	4.92234	4.93542	4.95864	4.91785	4.87962	4.85066	4.82875	4.7943	4.76094	4.74031	4.72749	4.72876	4.77134	4.78623	4.85511	4.90028	4.91187	4.89443	4.79259	4.70464	4.60657	4.54275	4.47739	4.40353	4.32135	4.2675	4.30869	4.36097	4.43211	4.49156	4.56927	4.65	4.72758	4.79959	4.84892	4.88682	4.92445	4.94612	4.94	4.94994	4.91902	4.86243	4.82273	4.80508	4.77352	4.735	4.71096	4.67364	4.6466	4.6185	4.60527	4.58703	4.57818	4.59815	4.61661	4.68885	4.74484	4.79123	4.85315	4.86674	4.89805	4.83286	4.71278	4.62678	4.5347	4.46161	4.38664	4.25971	4.25937	4.26804	4.34774	4.40278	4.46167	4.52006	4.57538	4.62575	4.67956	4.69373	4.7017	4.66383	4.62665	4.59752	4.58193	4.50642	4.47339	4.48072	4.5143	4.52782	4.57432	4.60232	4.64824	4.70802	4.72326	4.74549	4.69128	4.61347	4.49971	4.37851	4.29208	4.15271	4.1869	4.32204	4.6218	4.58813	4.29361	4.2516	4.02763	4.21015	4.44762	4.42942	4.41574	4.40337	4.39322	4.38639	4.37934	4.4273	4.43292	4.43712	4.44041	4.44705	4.4533	4.46689	4.4672	4.4617	4.44767	4.43009	4.41751	4.40008	4.38895	4.37284	4.32183	4.30021	4.28213	4.26868	4.25731	4.24987	4.24379	4.24662	4.24901	4.26371	4.39123	4.42965	4.51225	4.65205	4.82694	4.87262
20	0	3.85277	3.87353	3.91076	3.93719	3.95385	3.96594	3.92592	4.02294	4.10861	4.19942	4.27984	4.36319	4.42416	4.44521	4.35483	4.32413	4.29988	4.28076	4.27376	4.26061	4.25373	4.24544	4.24159	4.23553	4.21134	4.14924	4.0952	4.14166	4.16408	4.18377	4.20647	4.20526	4.20667	4.20321	4.20274	4.19799	4.19492	4.18986	4.18744	4.18343	4.18861	4.23344	4.275	4.31224	4.34661	4.34123	4.3419	4.32753	4.30407	4.24692	4.24487	4.23414	4.2124	4.21193	4.22239	4.23385	4.2534	4.26662	4.29183	4.29444	4.29299	4.29347	4.2794	4.26006	4.24426	4.22054	4.19823	4.17494	4.15081	4.1272	4.10303	4.08069	4.05817	4.03865	4.01927	4.00133	3.98203	3.97399	3.96124	3.94701	3.95754	3.96623	3.9827	4.02046	4.03754	4.05617	4.0775	4.08563	4.07942	4.07464	4.06887	4.06796	4.06475	4.06445	4.06226	4.0626	4.06133	4.06287	4.06316	4.06686	4.06925	4.07432	4.05822	4.04099	4.03295	4.02766	4.02484	4.02383	4.04309	4.04876	4.05705	4.06711	4.07831	4.08919	4.10243	4.09876	4.09709	4.09307	4.0903	4.08594	4.08176	4.07641	4.03586	4.0236	4.01599	4.00577	4.00126	3.99608	3.9955	3.99713	4.00098	4.06741	4.09619	4.12278	4.15392	4.18097	4.19535	4.21102	4.22371	4.2335	4.24186	4.22697	4.21226	4.19658	4.18591	4.16877	4.15038	4.13364	4.11601	4.10024	4.08404	4.06969	4.0549	4.0436	4.03218	4.02294	4.01399	4.00755	4.00738	4.01335	4.00709	4.03571	4.06861	4.0759	4.10882	4.16204	4.19034	4.19362	4.19145	4.20407	4.22094	4.22524	4.24598	4.27839	4.2689	4.26536	4.25654	4.24747	4.2388	4.2232	4.18194	4.15348	4.12925	4.09943	4.04949	3.99894	3.99206	4.03789	4.04382	4.03778	4.0357	4.0344	4.04639	4.05631	4.06621	4.07544	4.06881	4.10432	4.14546	4.17686	4.19338	4.21651	4.23712	4.26314	4.25685	4.21544	4.17341	4.13528	4.1031	4.06393	4.06799	4.06618	4.07216	4.10002	4.13673	4.16886	4.20756	4.24534	4.28338	4.2647	4.24052	4.33218	4.37737	4.43377	4.47572	4.49558	4.49428	4.51393	4.5013	4.45542	4.40193	4.32372	4.24846	4.17593	4.09819	4.02914	3.95213	3.87833	3.81168	3.75101	3.68822	3.62795	3.63965	3.67316	3.69342	3.74147	3.79473	3.8498	3.90855	3.97002	4.03551	4.09476	4.17002	4.21009	4.25507	4.29268	4.29642	4.29052	4.27251	4.24915	4.22154	4.19448	4.16402	4.13985	4.11377	4.06908	4.0665	4.06629	4.06881	4.09643	4.1116	4.13286	4.15067	4.18747	4.2128	4.24594	4.27379	4.30568	4.32885	4.36391	4.3723	4.36759	4.3563	4.3486	4.3138	4.26437	4.21455	4.16246	4.10434	4.0446	3.98967	3.95367	3.94774	3.94002	3.96955	3.975	3.97911	3.98084	3.94414	3.8868	3.83866	3.77965	3.7322	3.69705	3.66337	3.62639	3.60372	3.58493	3.58511	3.65902	3.73621	3.81699	3.9009	3.99513	4.06668	4.13397	4.16295	4.12779	4.08321	4.04493	4.00202	3.96289	3.94109	3.91574	3.90003	3.88933	3.90737	3.92026	3.95132	3.97194	3.9871	4.02696	4.08294	4.11595	4.12128	4.12001	4.12661	4.11621	4.11098	4.10729	4.10285	4.10219	4.09856	4.10061	4.07356	4.05587	4.0416	4.05847	4.06796	4.0732	4.08596	4.08502	4.08195	4.08256	4.08114	4.08486	4.0648	4.07942	4.0908	4.10967	4.12704	4.1388	4.14196	4.14607	4.14263	4.12783	4.11296	4.10327	4.08938	4.08214	4.05932	4.06044	4.06173	4.07404	4.01559	3.93851	3.86891	3.8029	3.74892	3.71553	3.68441	3.77828	3.88594	4.02586	4.15357	4.24522	4.3223	4.3742	4.36261	4.35476	4.34413	4.32842	4.26917	4.17936	4.09235	3.94748	3.9002	3.88148	3.90641	3.9347	3.96288	4.00739	4.07224	4.11332	4.15114	4.18636	4.22473	4.22365	4.21064	4.20927	4.17754	4.12811	4.13034	4.13213	4.14343	4.15211	4.17113	4.18863	4.24499	4.37512	4.39106	4.40568	4.42022	4.42855	4.43949	4.44568	4.42551	4.39835	4.36783	4.33763	4.31405	4.29047	4.26848	4.2505	4.25987	4.26912	4.37018	4.42938	4.48128	4.52452	4.57924	4.67971	4.73269	4.78415	4.83231	4.88713	4.9463	4.9997	5.04706	5.09999	5.15803	5.21623	5.27377	5.2986	5.32356	5.35885	5.4006	5.42982	5.44176	5.4942	5.57148	5.66851	5.82523	6.00175	6.29275	6.45906	6.62236	6.78684	6.8349	7.04565	7.1962	7.45741	7.58299	7.68483	7.8877	8.03878	8.19612	8.36435	8.56199	8.88425	9.19508	9.66755	10.2333	11.2483	12.1212	13.2502	14.415	15.7472	17.2545	19.1247	21.2933	23.8346	27.2066	31.3058	35.6725	43.1888	55.1332	65.8234	81.1894	97.3627	128.493	146.937	161.139	168.187	154.325	135.58	112.446	92.6319	74.91	61.1678	48.9251	38.0295	31.7599	28.0144	24.1887	21.478	18.3763	17.2618	16.416	15.3555	13.5507	12.254	11.5232	10.7103	10.0227	9.43125	8.93839	8.51252	8.20248	7.97218	7.77938	7.6096	7.39823	7.16286	6.94262	6.74753	6.56631	6.39257	6.24102	6.10082	5.97331	5.87299	5.7921	5.69716	5.61129	5.53701	5.47356	5.41835	5.37524	5.33188	5.30382	5.26021	5.24568	5.21647	5.18618	5.15796	5.09611	4.73624	4.66327	4.62408	4.60542	4.59644	4.5982	4.61706	4.59036	4.51402	4.44404	4.39858	4.3748	4.35928	4.41123	4.46819	4.57009	4.61449	4.58281	4.49395	4.57366	4.60897	4.01723	4.09529	4.16248	4.2177	4.31609	4.33613	4.34031	4.33481	4.32474	4.30295	4.27042	4.24476	4.21667	4.16509	4.10687	4.04655	3.95451	3.962	3.98883	4.03371	4.09246	4.14429	4.19806	4.15022	4.10304	4.05764	4.02548	3.99926	3.97634	3.98976	4.00471	4.02324	4.0338	4.05722	4.05878	4.08823	4.10607	4.13	4.14674	4.16715	4.12617	4.08671	4.03866	3.9838	3.93096	3.87307	3.82828	3.77425	3.73612	3.72297	3.75155	3.78571	3.79398	3.81093	3.83377	3.81864	3.82391	3.82322	3.82347	3.81047	3.79073	3.77217	3.75141	3.73407	3.71484	3.69834	3.68108	3.66755	3.64682	3.60305	3.5674	3.55389	3.55037	3.57911	3.6264	3.68275	3.70129	3.72523	3.7363	3.74598	3.75625	3.76621	3.7743	3.78286	3.79007	3.79461	3.79851	3.80543	3.81797	3.80964	3.7896	3.73791	3.71472	3.70659	3.74328	3.76308	3.77632	3.79107	3.7774	3.75413	3.73165	3.73118	3.69006	3.67577	3.69338	3.70148	3.71171	3.69468	3.66384	3.52229	3.45386	3.3994	3.37585	3.43656	3.51147	3.57169	3.65047	3.7255	3.81183	3.85097	3.87283	3.87504	3.84778	3.81836	3.78245	3.74967	3.71559	3.66697	3.64444	3.64037	3.63139	3.62806	3.62717	3.62821	3.62607	3.63226	3.63466	3.64104	3.64655	3.65469	3.66315	3.68139	3.6959	3.71187	3.74063	3.75232	3.76879	3.78067	3.79689	3.80703	3.80305	3.81594	3.82712	3.85161	3.8727	3.89948	3.92523	3.95537	3.96168	3.95432	3.95109	3.94638	3.94584	3.94325	3.94246	3.94731	3.95081	3.94551	3.93955	3.93221	3.92504	3.92492	3.9182	3.91123	3.90282	3.90462	3.8829	3.87729	3.86495	3.85219	3.84862	3.83712	3.87009	3.90105	3.95036	3.98609	3.99664	3.98421	3.94909	3.92696	3.89565	3.86368	3.82842	3.79751	3.771	3.74478	3.71673	3.66312	3.59747	3.57561	3.60534	3.65152	3.69084	3.67971	3.68985	3.699	3.7168	3.70556	3.52006	3.50584	3.49818	3.56471	3.6286	3.69918	3.79814	3.93829	4.04292	4.03141	4.02228	4.0229	3.99926	3.97311	3.86698	3.66414	3.57903	3.57938	3.6053	3.62885	3.64513	3.66605	3.68636	3.71103	3.73564	3.78033	3.81278	3.84962	3.89075	3.92801	3.98043	4.01539	4.027	4.03557	4.04149	4.04731	4.02602	4.01451	3.90571	3.9291	3.99127	4.00357	4.00101	4.00614	4.00305	4.0096	3.98079	3.93473	3.91524	4.01086	4.02995	4.05335	4.05395	4.06164	4.07777	4.05542	4.03205	4.00588	3.97768	3.95052	3.92414	3.90233	3.88209	3.86599	3.85679	3.85396	3.85667	3.88146	3.92774	3.96462	4.01483	4.04739	4.01334	3.96994	3.92702	3.81723	3.8051	3.79714	3.79248	3.79658	3.90753	3.94474	3.95868	3.96753	3.96283	3.96452	3.99138	4.00901	4.03269	4.03524	4.01126	3.97615	3.95936	3.91432	3.86809	3.82387	3.75241	3.70055	3.67884	3.6852	3.68727	3.70522	3.72658	3.74914	3.77791	3.81257	3.80146	3.79174	3.78373	3.79889	3.79008	3.78005	3.77207	3.76577	3.76242	3.7626	3.7745	3.78755	3.84421	3.85143	3.85596	3.85436	3.86874	3.88115	3.8913	3.91063	3.92802	3.95226	3.97297	3.99241	4.02546	4.05453	4.06421	4.05562	4.029	3.99485	3.84187	3.73982	3.64976	3.57294	3.47252	3.46984	3.52994	3.57974	3.63092	3.70701	3.77497	3.82012	3.85478	3.89144	3.89272	3.83354	3.7715	3.71487	3.66266	3.62041	3.61605	3.40929	3.43442	3.46517	3.50251	3.54247	3.56973	3.60071	3.61696	3.61717	3.61962	3.62735	3.63488	3.64588	3.65891	3.67672	3.69665	3.71845	3.74873	3.7741	3.79734	3.82222	3.85078	3.88185	3.91711	3.95044	3.93983	3.92516	3.91578	3.89647	3.81198	3.74593	3.74877	3.75313	3.76216	3.77134	3.78762	3.68848	3.53094	3.39153	3.40335	3.41228	3.54976	3.95223	3.96082	3.97131	3.85678	3.86474	3.87091	3.89962	3.92242	3.91394	3.87807	3.80916	3.74605	3.68579	3.61618	3.56164	3.53461	3.52689	3.51996	3.52271	3.53552	3.55905	3.58505	3.61631	3.65787	3.69964	3.75871	3.82225	3.89311	3.93202	3.9092	3.865	3.84054	3.79463	3.73585	3.67437	3.58685	3.4623	3.57104	3.49072
20	20	4.07582	4.17111	4.28319	4.38113	4.40782	4.48625	4.5912	4.64303	4.69821	4.73788	4.80015	4.8254	4.81858	4.82313	4.81593	4.80098	4.80352	4.78207	4.7662	4.75409	4.73981	4.7356	4.74823	4.72481	4.69378	4.67445	4.67547	4.70184	4.72061	4.68622	4.64239	4.629	4.59315	4.54587	4.50918	4.46872	4.4431	4.46859	4.48226	4.4929	4.5195	4.58087	4.57666	4.58592	4.61166	4.62646	4.58131	4.54404	4.52179	4.46758	4.43116	4.43223	4.44579	4.46697	4.48751	4.54032	4.57886	4.59256	4.53898	4.50592	4.49593	4.50583	4.5369	4.5535	4.6187	4.69355	4.70805	4.72574	4.7903	4.76123	4.74634	4.71369	4.65658	4.07806	4.04355	4.1472	4.62363	4.27395	4.48151	4.616	4.71242	4.72389	4.76172	4.75878	4.76197	4.77095	4.77474	4.85366	4.81236	4.79085	4.78312	4.76799	4.77068	4.75206	4.68869	4.6676	4.66797	4.68161	4.66854	4.61357	4.57683	4.54711	4.49813	4.44959	4.41757	4.38965	4.42614	4.47654	4.52526	4.60945	4.66941	4.72114	4.75327	4.76961	4.74495	4.72971	4.72379	4.73076	4.67039	4.61967	4.61957	4.62321	4.61779	4.61958	4.58633	4.53702	4.49818	4.43481	4.42093	4.4408	4.44926	4.44386	4.43106	4.41597	4.39313	4.37774	4.34044	4.31283	4.30788	4.32886	4.34625	4.3978	4.44375	4.46644	4.46209	4.45314	4.46331	4.43765	4.43207	4.45987	4.49335	4.5524	4.60151	4.6769	4.69312	4.63723	4.60526	4.52132	4.50636	4.53907	4.5647	4.61569	4.69607	4.68114	4.60055	4.48187	4.36391	4.24441	4.23376	4.35787	4.37462	4.38441	4.42264	4.38257	4.43647	4.47611	4.48975	4.49775	4.53439	4.59641	4.6697	4.6985	4.72255	4.75434	4.75557	4.71916	4.69033	4.65697	4.61497	4.5614	4.50244	4.43515	4.45036	4.43801	4.4246	4.43428	4.43492	4.38849	4.35491	4.34243	4.35716	4.29544	4.24079	4.29222	4.35197	4.45681	4.60404	4.79511	4.83812	4.80141	4.84939	4.88842	4.92393	4.95093	4.97145	4.98068	4.95066	4.9188	4.8781	4.84001	4.84696	4.81364	4.82116	4.80286	4.7758	4.77113	4.79193	4.80502	4.82075	4.83131	4.8807	4.91588	4.93326	4.95455	4.9486	4.9334	4.92044	4.91244	4.91858	4.9239	4.92291	4.79643	4.71986	4.68053	4.72809	4.84842	4.86287	4.97488	4.97564	4.88102	4.77707	4.67044	4.58705	4.48729	4.37287	4.30972	4.32188	4.41144	4.50238	4.59989	4.62867	4.66731	4.65073	4.60791	4.63461	4.66233	4.70024	4.7385	4.73682	4.68794	4.64841	4.60137	4.53469	4.47274	4.41435	4.33984	4.29325	4.2641	4.28906	4.31313	4.34307	4.3601	4.38194	4.39545	4.43575	4.46857	4.4813	4.49854	4.50034	4.4916	4.41533	4.37596	4.3176	4.26964	4.271	4.24335	4.2221	4.19618	4.18128	4.20103	4.23877	4.3132	4.36286	4.394	4.49828	4.51167	4.50803	4.4148	4.29754	4.11846	4.03542	3.95113	3.91903	3.8883	3.92012	3.90457	3.90263	3.91242	3.9532	4.00528	4.05259	4.10213	4.01428	4.03162	4.04615	4.0693	4.05767	4.06634	4.11092	4.17061	4.20798	4.1934	4.19846	4.18265	4.18711	4.17909	4.17756	4.19816	4.16774	4.13517	4.12367	4.21377	4.29992	4.33757	4.39284	4.41711	4.39924	4.40215	4.39863	4.36937	4.34221	4.31672	4.31805	4.36385	4.33034	4.31104	4.28557	4.28653	4.28602	4.29437	4.31948	4.3397	4.34006	4.28773	4.21262	4.12831	4.07781	4.07046	4.09625	4.12994	4.17184	4.24085	4.34243	4.48164	4.51778	4.58005	4.5885	4.43359	4.37637	4.38247	4.431	4.4125	4.40365	4.32665	4.2533	4.19173	4.13658	4.13511	4.15536	4.17862	4.23811	4.31673	4.36922	4.4525	4.52712	4.63384	4.71496	4.77811	4.75908	4.77033	4.78768	4.77049	4.76468	4.79463	4.82313	4.82957	4.86029	4.90185	4.90087	4.7919	4.71179	4.71916	4.70652	4.70457	4.70146	4.68889	4.63134	4.60004	4.58615	4.57218	4.56889	4.57321	4.59944	4.63486	4.69843	4.76221	4.92058	5.02518	5.04778	5.04173	5.05019	5.05329	4.99469	5.00278	5.03066	5.06486	5.16083	5.23799	5.32128	5.42324	5.5109	5.56824	5.64027	5.69343	5.76567	5.85	5.89036	5.91335	5.91133	5.88771	5.87371	5.78485	5.67988	5.66213	5.6587	5.71814	5.79551	5.91646	6.10231	6.28764	6.54416	6.79604	7.05933	7.31671	7.58703	7.79921	7.96498	8.13466	8.30901	8.46423	8.66358	8.90846	9.15312	9.51541	9.89177	10.262	10.7127	11.0843	11.567	12.141	12.856	13.6778	14.6862	15.8336	17.1553	18.8004	20.3673	22.5802	24.8031	27.2875	30.4302	34.3592	39.2182	45.3496	51.3952	66.3232	83.4623	98.2055	125	154.545	189.785	214.043	235.75	249.435	217.903	173.628	150.694	120.393	95.8691	76.6175	61.4029	51.6262	43.9917	38.3492	33.5722	29.8872	25.8229	22.2006	20.3201	18.7171	16.9768	16.011	15.0415	13.8918	12.9983	12.2385	11.509	10.7013	10.0785	9.54884	9.12639	8.76999	8.46431	8.12994	7.78875	7.60221	7.44375	7.28804	7.16148	7.07318	7.00923	6.97328	6.94907	6.89061	6.83787	6.72867	6.60483	6.41241	6.28926	6.19248	6.11763	6.01338	5.93471	5.87563	5.82418	5.79912	5.75404	5.71648	5.68712	5.68278	5.66264	5.61604	5.51421	5.40843	5.31961	5.20105	5.13613	5.07208	5.05226	4.99434	4.90063	4.82315	4.73834	4.69128	4.68783	4.74104	4.83632	4.91453	4.91859	4.92207	4.89676	4.853	4.71418	4.63102	4.61578	4.62822	4.67951	4.75638	4.81868	4.83606	4.83055	4.81885	4.80927	4.82015	4.81343	4.76251	4.69923	4.63397	4.53452	4.45136	4.37768	4.27444	4.20744	4.17307	4.20351	4.2402	4.28279	4.31548	4.31136	4.28872	4.27276	4.29848	4.22228	4.22362	4.21391	4.21773	4.22623	4.25269	4.25333	4.26315	4.17157	4.08672	4.03177	4.02753	4.02927	4.02049	4.01968	4.03834	4.10398	4.13153	4.15641	4.21004	4.21437	4.1284	4.05139	3.98831	3.99698	4.01602	4.0075	4.00684	4.05295	4.07682	4.04798	4.04516	4.02717	4.01809	4.05215	4.11027	4.11984	4.12252	4.10885	4.09533	4.09681	4.09461	4.16335	4.20434	4.24748	4.27743	4.27204	4.26326	4.30127	4.27977	4.29378	4.34225	4.38871	4.38853	4.4126	4.4004	4.3709	4.33811	4.32238	4.29783	4.26789	4.21694	4.19209	4.11124	4.03326	3.95846	3.85476	3.79781	3.81881	3.86458	3.91934	3.94007	3.96445	4.00143	4.00004	3.97857	3.92935	3.78562	3.71521	3.81807	3.87195	3.92843	4.01655	4.07048	4.1063	4.13875	4.1815	4.22513	4.27193	4.32831	4.35623	4.38556	4.42368	4.39806	4.35272	4.30045	4.24354	4.18245	4.12956	4.09067	4.0715	4.01154	3.94797	3.91349	3.91714	3.93267	3.92571	3.90437	3.90475	3.88484	3.84963	3.833	3.8412	3.80241	3.76967	3.66349	3.62837	3.64329	3.72251	3.79993	3.86944	3.93555	3.97413	4.02314	4.07549	4.12718	4.18927	4.2182	4.20881	4.20978	4.17898	4.18424	4.17805	4.16091	4.10326	4.0419	4.01172	3.98726	3.96918	3.92443	3.93512	3.926	3.93914	3.90884	3.87523	3.80368	3.80429	3.76914	3.7979	3.8311	3.92462	4.06113	4.2183	4.33434	4.49244	4.61338	4.74272	4.70374	4.64802	4.56535	4.50662	4.44878	4.44	4.46689	4.3424	4.25527	4.17076	4.08641	4.05556	4.04273	4.03734	4.04523	4.06757	4.10507	4.19272	4.24562	4.24169	4.21737	4.17238	4.15261	4.15514	4.09156	4.0384	3.97976	3.92071	3.92574	3.92267	3.91216	3.93841	3.97353	4.02819	4.02565	4.01435	4.02886	3.99329	3.94278	3.92528	3.94306	4.0277	4.08428	4.15801	4.23632	4.3368	4.40854	4.54092	4.54837	4.47828	4.44494	4.41793	4.36614	4.33352	4.31704	4.28744	4.25442	4.21549	4.17562	4.14312	4.05692	4.00666	3.96025	3.93664	3.93398	3.96584	4.01693	4.03837	4.08885	4.1379	4.19085	4.23772	4.23357	4.22135	4.20095	4.15148	4.0871	4.03134	4.03072	4.02978	4.02845	3.97079	3.90946	3.83513	3.84747	3.89204	3.92655	3.96465	3.96298	3.99764	4.04653	4.06301	4.07597	4.03921	3.9268	3.93666	3.97546	3.99465	4.1192	4.1242	4.11828	4.07862	4.02769	3.99808	3.97837	3.93394	3.92368	3.90738	3.92827	3.92424	3.91238	3.99318	4.06582	4.04583	4.05008	4.03494	4.02017	4.0224	4.03349	4.03323	4.03058	4.06071	4.09534	4.10907	4.09541	4.09369	4.12937	4.19248	4.24012	4.2897	4.33544	4.34527	4.35757	4.39295	4.40672	4.4092	4.36473	4.29683	4.23637	4.19551	4.15214	4.12654	4.11282	4.09415	4.06957	4.0571	4.09879	4.14373	4.18556	4.24691	4.2674	4.24135	4.2554	4.29464	4.29954	4.27179	4.19723	4.11559	4.07808	4.11206	4.18816	4.27406	4.27846	4.29651	4.30761	4.3314	4.35394	4.32624	4.28512	4.25362	4.27154	4.39495	4.45582	4.51132	4.54723	4.54434	4.48816	4.44359	4.38392	4.31684	4.23555	4.16924	4.13596	4.11559	4.08842	4.02298	3.98762	3.95127	3.95534	3.98578	4.01663	4.06084	4.11773	4.18351	4.21682	4.23401	4.27253	4.2637	4.22421	4.18989	4.17387	4.16577	4.08639	4.0341	3.99029	3.94641	3.90797	3.85927	3.88057	3.89917	3.95098	3.99504	4.03548	4.0642	4.08738	4.11514	4.14511	4.16209	4.18671	4.18752	4.19457	4.2059	4.20736	4.18117	4.11909	4.0475	4.00037	3.94579	3.90193	3.83476	3.79727	3.79949	3.80098	3.78119	3.76413	3.79804	3.81675	3.85277	3.91023	3.96779	4.02699	4.07086	4.10188	4.10866	4.11651	4.12073	4.13802	4.16654	4.19116	4.18593	4.13312	4.07622	3.91377	3.70372	3.46253
