Acq. time (s)=	4
Accumulations=	3
Range=	Off
Autofocus=	At all XY pixels
SWIFT=	Off
AutoExposure=	Off
Spike filter=	Multiple accum.
Delay time (s)=	0
Binning=	1
Readout mode=	Signal
DeNoise=	Standard
ICS correction=	On
Dark correction=	Off
Inst. Process=	Off
Instrument=	LabRAM S3000
Detector=	Synapse
Objective=	x100
Grating=	1800
ND Filter=	25%
Laser (nm)=	632.81 
Spectro (cm-¹)=	521.228
Slit=	100.021
Hole=	199.981
Microscope=	Principal
StageXY=	Märzhauser
StageZ=	Märzhauser
Z (µm)=	-280
Project=	
Sample=	
Site=	
Title=	SOP_200nm_furu_p0.1
Remark=	
Date=	14.06.2019 10:48
Operator=	
Acquired=	14.06.2019 10:48:18
		358.285	358.609	358.934	359.26	359.585	359.909	360.235	360.56	360.886	361.21	361.535	361.859	362.185	362.51	362.834	363.16	363.485	363.809	364.135	364.459	364.784	365.108	365.434	365.758	366.083	366.407	366.733	367.057	367.381	367.705	368.03	368.355	368.68	369.004	369.328	369.652	369.978	370.302	370.626	370.95	371.274	371.598	371.923	372.248	372.572	372.896	373.22	373.544	373.868	374.192	374.516	374.84	375.164	375.49	375.813	376.137	376.461	376.785	377.109	377.433	377.757	378.081	378.404	378.728	379.052	379.376	379.699	380.023	380.347	380.671	380.994	381.318	381.642	381.965	382.288	382.611	382.935	383.258	383.582	383.906	384.229	384.553	384.876	385.2	385.522	385.845	386.169	386.492	386.816	387.139	387.463	387.785	388.108	388.431	388.755	389.078	389.402	389.723	390.047	390.37	390.693	391.015	391.338	391.662	391.985	392.307	392.63	392.953	393.276	393.598	393.921	394.244	394.566	394.889	395.212	395.535	395.857	396.18	396.503	396.825	397.148	397.471	397.792	398.115	398.437	398.76	399.083	399.404	399.727	400.049	400.372	400.694	401.016	401.339	401.66	401.983	402.304	402.627	402.95	403.271	403.594	403.915	404.238	404.559	404.882	405.203	405.526	405.847	406.17	406.491	406.814	407.135	407.456	407.778	408.1	408.422	408.743	409.066	409.387	409.708	410.03	410.351	410.674	410.995	411.316	411.638	411.959	412.282	412.602	412.923	413.246	413.567	413.888	414.21	414.531	414.852	415.174	415.495	415.815	416.136	416.458	416.779	417.1	417.421	417.743	418.064	418.384	418.705	419.027	419.348	419.668	419.989	420.311	420.632	420.952	421.273	421.593	421.914	422.236	422.556	422.877	423.197	423.518	423.838	424.16	424.481	424.801	425.121	425.442	425.762	426.083	426.403	426.723	427.044	427.365	427.686	428.006	428.326	428.647	428.967	429.287	429.607	429.927	430.248	430.568	430.888	431.208	431.528	431.848	432.169	432.489	432.809	433.129	433.449	433.769	434.088	434.408	434.728	435.048	435.368	435.688	436.008	436.327	436.647	436.967	437.287	437.606	437.926	438.245	438.565	438.885	439.205	439.523	439.843	440.163	440.483	440.802	441.121	441.44	441.76	442.08	442.4	442.718	443.037	443.357	443.677	443.995	444.315	444.634	444.954	445.272	445.591	445.911	446.229	446.549	446.868	447.186	447.506	447.825	448.143	448.463	448.782	449.1	449.419	449.739	450.057	450.376	450.695	451.013	451.333	451.65	451.97	452.288	452.607	452.926	453.244	453.563	453.881	454.2	454.518	454.837	455.155	455.474	455.792	456.111	456.428	456.748	457.065	457.384	457.702	458.021	458.338	458.658	458.975	459.294	459.612	459.929	460.248	460.566	460.884	461.202	461.519	461.838	462.156	462.475	462.792	463.109	463.428	463.746	464.063	464.382	464.699	465.016	465.335	465.652	465.97	466.288	466.606	466.923	467.242	467.559	467.876	468.193	468.512	468.829	469.146	469.463	469.782	470.099	470.416	470.733	471.05	471.369	471.686	472.003	472.32	472.637	472.954	473.272	473.589	473.906	474.223	474.54	474.857	475.174	475.492	475.809	476.126	476.442	476.759	477.076	477.393	477.71	478.026	478.343	478.66	478.977	479.293	479.61	479.928	480.245	480.562	480.878	481.195	481.512	481.828	482.145	482.461	482.777	483.093	483.41	483.726	484.043	484.359	484.676	484.992	485.309	485.625	485.942	486.258	486.575	486.889	487.206	487.522	487.839	488.155	488.471	488.788	489.104	489.419	489.735	490.051	490.368	490.684	490.999	491.315	491.631	491.947	492.264	492.578	492.895	493.211	493.527	493.842	494.158	494.474	494.79	495.104	495.421	495.737	496.051	496.367	496.683	496.998	497.314	497.63	497.944	498.26	498.576	498.891	499.206	499.522	499.837	500.153	500.469	500.783	501.099	501.413	501.729	502.043	502.359	502.675	502.989	503.305	503.619	503.935	504.249	504.565	504.879	505.195	505.509	505.825	506.139	506.454	506.769	507.084	507.398	507.714	508.028	508.343	508.658	508.973	509.287	509.601	509.917	510.231	510.546	510.86	511.174	511.489	511.803	512.119	512.433	512.747	513.062	513.376	513.69	514.005	514.319	514.633	514.948	515.262	515.576	515.891	516.204	516.518	516.832	517.147	517.461	517.775	518.088	518.403	518.717	519.031	519.344	519.659	519.973	520.287	520.6	520.914	521.229	521.542	521.856	522.169	522.483	522.797	523.111	523.425	523.738	524.052	524.365	524.679	524.992	525.305	525.62	525.934	526.247	526.56	526.874	527.187	527.5	527.814	528.127	528.44	528.753	529.067	529.38	529.693	530.006	530.32	530.633	530.946	531.259	531.572	531.885	532.198	532.512	532.825	533.138	533.451	533.764	534.077	534.39	534.702	535.015	535.328	535.641	535.953	536.266	536.579	536.892	537.204	537.517	537.83	538.142	538.455	538.768	539.08	539.392	539.705	540.018	540.331	540.642	540.955	541.268	541.58	541.893	542.204	542.517	542.83	543.141	543.454	543.766	544.079	544.39	544.703	545.015	545.327	545.639	545.952	546.263	546.575	546.888	547.199	547.511	547.824	548.135	548.447	548.76	549.071	549.383	549.694	550.007	550.319	550.63	550.942	551.253	551.565	551.876	552.189	552.5	552.812	553.123	553.435	553.746	554.058	554.369	554.681	554.992	555.304	555.615	555.927	556.237	556.55	556.86	557.172	557.483	557.795	558.106	558.416	558.728	559.039	559.351	559.662	559.972	560.284	560.595	560.905	561.217	561.528	561.838	562.15	562.46	562.771	563.083	563.393	563.704	564.015	564.326	564.636	564.947	565.258	565.569	565.879	566.189	566.501	566.811	567.122	567.432	567.743	568.054	568.364	568.674	568.984	569.296	569.606	569.916	570.226	570.536	570.847	571.158	571.468	571.778	572.088	572.398	572.708	573.018	573.329	573.639	573.95	574.26	574.57	574.88	575.19	575.5	575.81	576.12	576.429	576.739	577.049	577.359	577.669	577.979	578.289	578.598	578.908	579.218	579.528	579.837	580.147	580.457	580.767	581.076	581.386	581.694	582.004	582.314	582.623	582.933	583.242	583.552	583.862	584.171	584.479	584.789	585.098	585.408	585.718	586.027	586.335	586.645	586.954	587.263	587.573	587.881	588.19	588.5	588.809	589.119	589.426	589.736	590.045	590.354	590.662	590.972	591.281	591.589	591.898	592.207	592.515	592.824	593.134	593.441	593.751	594.06	594.367	594.677	594.986	595.294	595.603	595.912	596.219	596.528	596.836	597.145	597.454	597.762	598.071	598.378	598.687	598.995	599.304	599.611	599.92	600.228	600.537	600.846	601.153	601.462	601.77	602.077	602.386	602.693	603.002	603.309	603.618	603.926	604.234	604.542	604.85	605.158	605.465	605.774	606.081	606.39	606.697	607.004	607.313	607.62	607.927	608.236	608.543	608.85	609.159	609.466	609.773	610.081	610.389	610.696	611.004	611.311	611.618	611.925	612.234	612.541	612.848	613.155	613.463	613.77	614.077	614.384	614.691	614.999	615.306	615.613	615.92	616.227	616.535	616.842	617.149	617.456	617.762	618.069	618.376	618.684	618.991	619.298	619.604	619.911	620.218	620.524	620.831	621.138	621.444	621.751	622.058	622.366	622.672	622.979	623.286	623.592	623.899	624.205	624.512	624.818	625.125	625.431	625.738	626.044	626.349	626.656	626.962	627.269	627.575	627.881	628.188	628.494	628.8	629.107	629.413	629.719	630.024	630.331	630.637	630.943	631.25	631.556	631.861	632.167	632.473	632.779	633.085	633.392	633.696	634.003	634.309	634.615	634.919	635.226	635.532	635.838	636.142	636.448	636.754	637.06	637.365	637.671	637.977	638.282	638.588	638.894	639.198	639.504	639.81	640.114	640.42	640.726	641.031	641.337	641.642	641.947	642.253	642.557	642.863	643.169	643.473	643.779	644.083	644.389	644.693	644.999	645.305	645.609	645.914	646.219	646.524	646.829	647.134	647.438	647.744	648.048	648.354	648.658	648.962	649.268	649.572	649.877	650.181	650.487	650.791	651.095	651.4	651.704	652.01	652.314	652.618	652.923	653.227	653.533	653.836	654.14	654.446	654.75	655.054	655.357	655.663	655.967	656.27	656.576	656.879	657.183	657.488	657.792	658.096	658.4	658.705	659.009	659.312	659.616	659.92	660.225	660.529	660.832	661.136	661.44	661.745	662.048	662.352	662.655	662.959	663.263	663.566	663.871	664.175	664.478	664.782	665.085	665.389	665.692	665.996	666.299	666.602	666.906	667.209	667.514	667.817	668.121	668.424	668.728	669.031	669.334	669.638	669.941	670.244	670.547	670.851	671.154	671.456	671.759	672.062	672.365	672.669	672.972	673.275	673.578	673.881	674.184	674.487	674.791	675.092	675.395	675.698	676.002	676.305	676.608	676.911	677.212	677.515	677.818	678.121	678.424	678.726	679.029	679.332
-20	-20	4.08475	4.14328	4.19302	4.24663	4.24711	4.23136	4.20835	4.15211	4.06483	4.04701	4.03695	4.02572	4.02119	4.01603	4.01539	4.01508	4.01773	4.01677	3.99508	3.98321	3.96781	3.99453	4.01656	4.04712	4.08063	4.08257	4.08626	4.08937	4.09051	4.0935	4.09726	4.08556	3.97242	3.91384	3.89979	3.92879	4.06115	4.12073	4.12905	4.13152	4.13518	4.13562	4.13679	4.13719	4.13764	4.1385	4.14001	4.10826	4.08976	4.07736	4.06626	4.06304	4.05463	4.05229	4.04608	4.04005	4.03486	4.03008	4.01564	3.97955	3.95017	3.9161	3.88692	3.85285	3.82513	3.79261	3.76767	3.72392	3.7029	3.68842	3.67381	3.66513	3.65851	3.65597	3.70419	3.72036	3.7411	3.77513	3.80384	3.8238	3.84215	3.86397	3.88142	3.90382	3.91985	3.94158	3.93954	3.93673	3.93063	3.92895	3.92639	3.92145	3.91233	3.90248	3.89835	3.89373	3.89421	3.89508	3.8997	3.91345	3.93394	3.96492	3.9782	3.98794	4.00105	4.01225	4.02316	4.0325	4.0422	4.04896	4.05781	4.04321	4.04305	4.0448	4.04429	4.04572	4.04556	4.04703	4.04773	4.04849	4.00694	3.96678	3.91652	3.84388	3.81128	3.77483	3.74912	3.73037	3.71841	3.71671	3.7355	3.76967	3.8329	3.91093	3.98913	4.04637	4.04905	4.0434	4.03711	4.03088	4.02391	4.01725	4.00975	4.00192	3.99347	3.98455	3.97504	3.94634	3.82809	3.66062	3.75966	3.82663	3.8481	3.86024	3.86822	3.85822	3.8427	3.82605	3.8144	3.79772	3.78841	3.74423	3.67031	3.59192	3.5212	3.46671	3.39933	3.41876	3.51057	3.57575	3.66882	3.70874	3.75167	3.79368	3.83104	3.90651	3.91022	3.91153	3.8876	3.8679	3.8458	3.82633	3.81158	3.78941	3.78032	3.77111	3.76638	3.77911	3.78893	3.79879	3.81004	3.82842	3.84651	3.87899	3.9035	3.90707	3.90431	3.90358	3.85183	3.88141	3.91435	3.90241	3.91164	3.91944	3.91854	3.94645	3.97874	4.00988	3.92529	4.04101	4.03676	4.00121	3.73733	4.13035	4.24433	4.21308	4.18663	4.14989	4.11667	4.08049	4.04583	4.00892	3.97884	3.95421	3.89789	3.92186	3.91652	3.90507	3.91532	3.94395	3.98886	4.03271	4.07883	4.11913	4.15158	4.18242	4.21056	4.23057	4.24718	4.26105	4.27059	4.27193	4.265	4.26188	4.25821	4.24693	4.23649	4.22534	4.19101	4.18474	4.16428	4.14285	4.11048	4.10317	4.08499	4.05841	4.03031	4.00058	3.96936	3.93683	3.90189	3.86964	3.83771	3.80704	3.77467	3.74874	3.72293	3.66277	3.61554	3.61189	3.62418	3.66746	3.70641	3.74513	3.78572	3.82562	3.86565	3.90622	3.94566	3.98388	4.02223	4.03968	4.05378	4.06537	4.08566	4.09302	4.10642	4.1082	4.11115	4.10787	4.12661	4.10827	4.0885	4.06805	4.04701	4.02142	3.99598	3.96476	3.94232	3.91268	3.88705	3.85428	3.82561	3.80297	3.78424	3.76782	3.75305	3.74249	3.73298	3.74582	3.72691	3.7026	3.67919	3.65546	3.63857	3.61983	3.61196	3.62439	3.65957	3.69011	3.73581	3.74756	3.7462	3.74767	3.74482	3.73966	3.73202	3.72541	3.71792	3.70978	3.70259	3.69323	3.68223	3.67103	3.65974	3.64772	3.63717	3.62548	3.617	3.60713	3.58885	3.58868	3.58522	3.58537	3.58388	3.57311	3.59762	3.62752	3.65863	3.69371	3.73133	3.77224	3.81588	3.86778	3.89127	3.8979	3.90655	3.91611	3.91557	3.91212	3.91601	3.90261	3.90871	3.89101	3.91269	3.92855	3.95164	3.97198	3.97797	3.96807	3.96471	3.95207	3.94586	3.93681	3.93185	3.92422	3.91899	3.91283	3.90774	3.91039	3.90837	3.90463	3.89811	3.90945	3.89718	3.88424	3.87281	3.86879	3.85917	3.85033	3.82547	3.81886	3.8105	3.8045	3.79579	3.79358	3.78756	3.77559	3.78971	3.80724	3.829	3.85298	3.91624	3.94982	3.97455	4.0168	4.06316	4.149	4.20627	4.26141	4.32116	4.39407	4.44013	4.40083	4.3554	4.32154	4.29318	4.23583	4.11819	3.99989	3.87218	3.83374	3.84137	3.85798	3.88235	3.91393	3.95606	4.00118	4.0475	4.09368	4.14176	4.19214	4.23499	4.26927	4.28472	4.30251	4.31181	4.31594	4.32158	4.3294	4.34288	4.35444	4.37107	4.38693	4.40564	4.42415	4.44529	4.46647	4.48846	4.51014	4.53246	4.55181	4.57324	4.5986	4.61978	4.64564	4.67062	4.69954	4.72477	4.75933	4.79093	4.82258	4.85517	4.89259	4.9353	4.98053	5.02863	5.0849	5.1461	5.21688	5.29513	5.40881	5.52351	5.65753	5.79916	5.96554	6.15239	6.40096	6.68947	6.98455	7.32043	7.67069	8.04465	8.25798	8.76516	9.19177	9.77629	10.3758	11.1862	12.394	13.7961	15.5113	17.9805	20.348	22.7769	26.108	30.1977	35.4548	47.7752	54.9598	71.6109	86.1805	97.1267	108.946	104.001	94.8499	81.3356	67.5618	55.5552	44.0252	38.7332	27.6193	23.6472	20.3069	17.8223	16.0116	14.5676	12.4106	11.4437	10.5474	9.90131	9.26452	8.72347	8.23397	7.83091	7.51882	7.35507	7.15058	7.01394	6.72921	6.3629	6.07715	5.80483	5.47676	5.28803	5.13622	5.03579	4.97231	5.0712	5.08567	5.06679	5.03554	5.00422	4.97168	4.9643	4.96016	4.95498	4.92331	4.903	4.89918	4.90042	4.9128	4.89969	4.85246	4.8088	4.76152	4.71082	4.6507	4.53034	4.38305	4.25043	4.12592	4.01926	3.95264	3.89983	3.851	3.80946	3.7751	3.74564	3.71935	3.69877	3.68373	3.68126	3.68138	3.69416	3.67667	3.70745	3.73797	3.77379	3.81036	3.85075	3.89243	3.93476	3.9767	4.01787	4.05548	4.04734	4.01933	4.00804	3.94256	3.89319	3.85558	3.83133	3.82364	3.82833	3.8416	3.86919	3.89386	3.89755	3.85127	3.82218	3.79436	3.77936	3.73176	3.74103	3.74183	3.79697	3.83271	3.87073	3.90208	3.92252	3.94139	3.95516	3.96269	3.96108	3.95044	3.91881	3.88213	3.84051	3.79928	3.71998	3.66021	3.59049	3.49299	3.42693	3.36507	3.3903	3.41516	3.41781	3.42903	3.45937	3.50526	3.54971	3.57938	3.5889	3.58434	3.59833	3.61258	3.62814	3.65557	3.66954	3.72054	3.75835	3.75867	3.73855	3.70331	3.65304	3.59858	3.5472	3.50594	3.45873	3.41891	3.34162	3.34278	3.34503	3.35819	3.40805	3.43334	3.46706	3.50558	3.54149	3.57986	3.61326	3.64973	3.68317	3.71545	3.74781	3.7749	3.8054	3.82642	3.82538	3.82607	3.82857	3.82431	3.78715	3.7824	3.77493	3.79904	3.81447	3.79754	3.77537	3.7536	3.72915	3.72149	3.7104	3.6964	3.71874	3.72362	3.72948	3.74345	3.75113	3.75812	3.76521	3.77937	3.77911	3.77548	3.64652	3.57178	3.48604	3.39984	3.31753	3.24371	3.18154	3.12612	3.0915	3.18183	3.25944	3.32777	3.42351	3.5014	3.46589	3.43272	3.36647	3.54027	3.88421	3.87484	3.86957	3.77692	3.62135	3.65828	3.74567	3.7651	3.73578	3.71343	3.68384	3.66228	3.63432	3.61027	3.59796	3.59169	3.58646	3.57364	3.56634	3.54799	3.52662	3.50798	3.4897	3.47207	3.48326	3.46735	3.43907	3.40799	3.38346	3.35677	3.33762	3.31741	3.30065	3.28179	3.27659	3.25383	3.28428	3.31903	3.35568	3.40928	3.46983	3.53351	3.6028	3.65506	3.68426	3.70857	3.73565	3.76335	3.79363	3.82003	3.85638	3.88326	3.88575	3.86641	3.8489	3.83141	3.86717	3.89013	3.96462	3.95061	3.92921	3.85137	3.82798	3.81985	3.82726	3.83265	3.85876	3.83907	3.79433	3.75331	3.65866	3.61929	3.58752	3.57379	3.61061	3.63327	3.65815	3.6844	3.70759	3.7433	3.8045	3.87647	3.95416	3.94467	3.93131	3.70927	3.49877	3.4222	3.38682	3.57062	3.65535	3.69417	3.68983	3.70869	3.73556	3.7611	3.79255	3.81543	3.84513	3.86991	3.89783	3.91944	3.9442	3.96136	3.96137	3.96455	3.92359	3.87981	3.8316	3.78237	3.68768	3.58999	3.50723	3.43334	3.36578	3.31243	3.42945	3.51827	3.62036	3.7242	3.78241	3.83183	3.87675	3.92435	3.95959	3.96633	3.98401	3.99808	3.97805	3.91751	3.87705	3.83207	3.79065	3.75116	3.71434	3.67679	3.66104	3.67106	3.67565	3.63691	3.59769	3.56896	3.54684	3.53035	3.55096	3.58665	3.64802	3.67514	3.70261	3.66942	3.62203	3.57852	3.53952	3.50684	3.48245	3.4656	3.47836	3.45719	3.38559	3.26683	3.16925	3.17669	3.27547	3.39744	3.57621	3.77516	3.88235	3.86706	3.85481	3.83862	3.81842	3.79717	3.77601	3.75618	3.73692	3.71872	3.70102	3.68586	3.69028	3.67942	3.68177	3.67773	3.67465	3.67154	3.6676	3.6672	3.66574	3.66701	3.66406	3.66498	3.63279	3.658	3.45092	3.32318	3.29706	3.29223	3.41516	3.4111	3.40977	3.40371	3.39975	3.39798	3.40308	3.43553	3.48468	3.64674	3.67275	3.69782	3.72728	3.76032	3.79581	3.84042	3.89938	3.92781	3.90381	3.87434	3.84043	3.80427	3.76598	3.72748	3.64837	3.58535	3.5307	3.52023	3.5844	3.60102	3.58944	3.58276	3.58065	3.59556	3.60585	3.54378	3.47694	3.38217	3.38417	3.39101	3.40615	3.42503	3.4493	3.47932	3.51279	3.55566	3.60071	3.6502	3.70807	3.74982	3.76207	3.77261	3.78519	3.79536	3.80771	3.81214	3.82287	3.82455	3.84175	3.84622	3.83511	3.82136	3.82513	3.7952	3.71112	3.6529	3.59377	3.59614	3.60344	3.62472	3.65425	3.69576	3.73558	3.77112	3.80471	3.83687	3.86739	3.89561	3.90674	3.90286	3.89664	3.87129	3.84264	3.81436	3.79137	3.76516	3.74334	3.71942	3.70112	3.6808	3.6694	3.65394	3.64902	3.64654	3.66078	3.69835	3.74544	3.78696	3.82231	3.8603	3.90133	3.88588	3.87658	3.85749	3.84569	3.82349	3.80671	3.77442	3.74305	3.70362	3.61457	3.5208	3.42753	3.48167
-20	0	4.07191	4.42891	4.71104	4.83461	4.76228	4.6467	4.48715	4.25093	4.2217	4.19538	4.1945	4.13985	4.03045	4.04177	4.05901	4.08494	4.12087	4.15817	4.21048	4.26065	4.30905	4.29458	4.26931	4.24412	4.21705	4.19416	4.16771	4.14662	4.12573	4.08988	4.06982	4.04669	4.04558	4.03589	4.0412	4.04839	4.05758	4.06742	4.0792	4.09405	4.10822	4.12747	4.14398	4.16588	4.17539	4.18845	4.19435	4.26521	4.31911	4.36232	4.40369	4.44849	4.49313	4.54428	4.5716	4.58181	4.49322	4.39288	4.28908	4.19125	4.095	3.97977	3.93668	3.89314	3.8623	3.85722	3.8651	3.90105	3.94981	4.00303	4.01268	4.02872	4.04455	4.06412	4.07459	4.08109	4.09222	4.09016	4.09273	4.09111	4.09362	4.09572	4.08495	4.09449	4.10657	4.11911	4.13363	4.14785	4.16521	4.18195	4.1991	4.21642	4.23632	4.25836	4.22834	4.19527	4.16599	4.13454	4.11083	4.09194	4.06249	4.03221	4.00167	3.98044	3.95915	3.94744	3.94096	3.94601	3.9508	3.95623	3.96002	3.9619	3.96558	3.96244	3.96353	3.92567	3.92161	3.92051	3.91982	3.92058	3.92166	3.92989	3.93363	3.93777	3.94097	3.94564	3.94916	3.95493	3.95869	3.96486	3.96815	3.97366	3.97266	3.97551	3.97799	3.97839	3.98083	3.97968	3.98996	3.9883	3.98253	3.97992	3.9737	3.97095	3.9636	3.96065	3.95264	3.92633	3.90337	3.87423	3.88275	3.90062	3.91871	3.94091	3.96805	3.99394	4.03563	4.10096	4.11723	4.10834	4.10119	4.09848	4.08094	4.10884	4.14854	4.19766	4.19334	4.1809	4.18782	4.16923	4.15711	4.15555	4.15077	4.11831	4.07809	3.99988	3.95335	3.90411	3.86672	3.82611	3.79643	3.80931	3.82564	3.9185	3.91625	3.91938	3.91574	3.91277	3.91013	3.89797	3.89141	3.84451	3.82774	3.81366	3.79907	3.7946	3.79623	3.79779	3.84625	3.86512	3.89884	3.93323	3.92683	3.94078	3.9201	3.93103	3.98767	4.06186	4.16449	4.26194	4.35825	4.4375	4.50396	4.57217	4.63895	4.68776	4.62286	4.5331	4.37291	4.22795	4.09462	3.98265	3.89688	3.82378	3.81525	3.84913	3.94346	4.0354	4.04242	3.98063	3.97255	3.94199	3.92011	3.89282	3.87734	3.85738	3.84685	3.83184	3.8286	3.8264	3.83061	3.86068	3.8793	3.88866	3.9	3.90508	3.91452	3.91966	3.92676	3.93159	3.93629	3.9406	3.94299	3.94701	3.94763	3.95198	3.93742	3.92534	3.89588	3.89194	3.88851	3.8866	3.88942	3.89103	3.89457	3.90041	3.90665	3.90509	3.90255	3.92485	3.9556	3.98755	4.02871	4.06499	4.10922	4.14996	4.19505	4.22123	4.24257	4.26031	4.20984	4.13966	4.07299	4.01306	3.97473	3.93268	3.904	3.90134	3.90133	3.90706	3.9233	3.92777	3.9302	3.93816	3.94931	3.96489	3.99993	4.0187	4.02498	4.03493	4.02853	4.02248	4.01224	3.99238	3.98017	3.93682	3.91634	3.90117	3.88858	3.88363	3.90905	3.87299	3.83701	3.79513	3.7466	3.70316	3.64892	3.61404	3.58401	3.55798	3.54162	3.536	3.5312	3.60077	3.6836	3.76932	3.85628	3.95369	4.04727	4.12609	4.1914	4.21924	4.24749	4.18677	4.13473	4.0889	4.01004	3.9248	3.83346	3.73914	3.6686	3.62056	3.66646	3.72074	3.77157	3.8368	3.89856	3.96637	4.02925	4.09105	4.14144	4.16089	4.1782	4.1894	4.1791	4.16263	4.13137	4.0433	3.9268	3.85827	3.82834	3.80871	3.75113	3.68776	3.63888	3.61906	3.62282	3.60971	3.41954	3.43309	3.80542	3.89276	3.97885	4.07088	4.12901	4.20414	4.10127	4.06819	4.03347	4.02301	4.01526	3.97944	3.93811	3.89202	3.80818	3.67185	3.6605	3.66293	3.72948	3.78209	3.84315	3.9069	3.96803	4.03007	4.0865	4.14552	4.17938	4.18381	4.18074	4.17422	4.14826	4.13319	4.11312	4.08158	4.08732	4.09119	4.10189	4.16194	4.21064	4.256	4.30096	4.29528	4.28412	4.27347	4.25249	4.21948	4.14742	4.06704	4.00968	4.17883	4.432	4.37154	4.44807	4.45385	4.46845	4.48067	4.46725	4.44748	4.41655	4.38446	4.35636	4.33255	4.31134	4.30077	4.30663	4.33049	4.37644	4.41246	4.46687	4.51993	4.58162	4.62578	4.65892	4.70617	4.7453	4.78593	4.81724	4.85633	4.94354	5.00858	5.03477	5.05381	5.06763	5.10081	5.14235	5.18595	5.22253	5.27026	5.34155	5.41141	5.48977	5.59934	5.7341	5.83375	5.89219	5.96484	6.04464	6.13159	6.23287	6.35254	6.52803	6.71274	6.9129	7.13909	7.37474	7.67145	7.97972	8.29845	8.52498	8.88938	9.36256	9.8788	10.4008	11.0951	11.9496	12.8458	14.0435	15.4737	17.1734	19.2973	21.7019	24.4856	27.7621	31.8102	36.2741	41.3035	53.0514	63.8808	77.4891	95.4461	122.73	141.06	155.987	165.087	135.627	120.846	97.7706	79.4273	63.1334	51.1578	42.827	34.8479	29.3463	25.3261	22.3066	20.4671	17.3339	15.2736	13.7855	12.5663	11.5198	10.7831	10.2054	9.6756	9.16984	8.7358	8.37794	8.06942	7.83835	7.6519	7.48955	7.34867	7.0945	6.9468	6.82999	6.71779	6.60622	6.48399	6.35602	6.23276	6.07322	5.88695	5.72551	5.57069	5.41984	5.27964	5.14865	4.95929	4.80409	4.65798	4.58853	4.60147	4.63947	4.69421	4.77494	4.84058	4.8566	4.90636	4.8956	4.86012	4.8266	4.78968	4.74981	4.71247	4.66218	4.62322	4.5877	4.54941	4.50858	4.47572	4.44077	4.44335	4.42368	4.41414	4.40191	4.38972	4.37772	4.36644	4.34326	4.32442	4.30918	4.29613	4.32008	4.33365	4.33377	4.33635	4.33976	4.34448	4.34972	4.35556	4.34102	4.31546	4.28687	4.25857	4.22233	4.19558	4.1708	4.14233	4.11368	4.08232	4.04839	4.012	3.96803	3.92078	3.87261	3.80992	3.74644	3.64826	3.55231	3.46579	3.39475	3.49512	3.69888	3.79235	3.91941	3.89114	3.85311	3.81331	3.77373	3.38929	3.24311	2.84208	3.24175	3.39989	3.52639	3.49143	3.47296	3.47729	3.51071	3.52274	3.51275	3.48352	3.51236	3.54676	3.58188	3.62274	3.66249	3.70663	3.7488	3.79347	3.83228	3.85802	3.85609	3.83268	3.78274	3.72376	3.6589	3.59065	3.46773	3.43413	3.40617	3.49747	3.53091	3.55552	3.56733	3.58428	3.58361	3.5769	3.57283	3.54526	3.5344	3.49445	3.42339	3.42948	3.43304	3.45245	3.46568	3.49404	3.51662	3.54768	3.57521	3.60426	3.63612	3.67467	3.69381	3.70693	3.72911	3.72927	3.72521	3.70548	3.69165	3.67898	3.65446	3.6245	3.58866	3.58112	3.57074	3.56404	3.55934	3.55217	3.59596	3.60199	3.59408	3.62016	3.64608	3.66689	3.67874	3.73775	3.76455	3.75588	3.74874	3.70908	3.68404	3.6556	3.65121	3.61905	3.62514	3.63643	3.64735	3.67416	3.69442	3.71813	3.74359	3.7676	3.74532	3.71628	3.64697	3.57285	3.5044	3.44281	3.38223	3.3389	3.33054	3.41758	3.47373	3.54075	3.61481	3.68641	3.76816	3.83748	3.87385	3.88708	3.87483	3.85013	3.82601	3.79681	3.77575	3.75287	3.72456	3.71455	3.7104	3.70562	3.70825	3.76972	3.78059	3.80369	3.81125	3.83486	3.81899	3.7783	3.7321	3.69061	3.63697	3.58731	3.54481	3.49332	3.45565	3.43005	3.41842	3.43782	3.45536	3.46166	3.47348	3.49173	3.47309	3.43887	3.38559	3.4239	3.49258	3.56404	3.6087	3.63889	3.61705	3.59229	3.56958	3.54693	3.52774	3.5106	3.49205	3.47547	3.46683	3.45309	3.45355	3.45779	3.46321	3.48087	3.51075	3.52788	3.55124	3.57669	3.60818	3.63268	3.6691	3.68074	3.68892	3.69846	3.70448	3.7087	3.67462	3.66719	3.65744	3.64109	3.64422	3.6525	3.66274	3.67414	3.71297	3.73431	3.75528	3.77852	3.80504	3.82338	3.84114	3.85681	3.87012	3.84426	3.76133	3.67717	3.56035	3.54338	3.5376	3.58344	3.61235	3.64365	3.67218	3.69851	3.70613	3.71263	3.72197	3.72364	3.732	3.73014	3.7214	3.72912	3.73904	3.75501	3.76906	3.78962	3.80732	3.83379	3.86029	3.88481	3.8978	3.88831	3.87607	3.86081	3.83404	3.80793	3.78148	3.75929	3.74236	3.71923	3.70841	3.76243	3.80431	3.85167	3.84065	3.80304	3.76704	3.72349	3.68602	3.64186	3.60022	3.54115	3.53051	3.51948	3.51319	3.62025	3.63887	3.6336	3.65418	3.63623	3.62624	3.61913	3.62163	3.61465	3.68109	3.66193	3.70999	3.73665	3.74096	3.70307	3.67308	3.63552	3.62431	3.59889	3.56486	3.53206	3.4793	3.47311	3.4685	3.46703	3.46951	3.47323	3.48437	3.49375	3.51098	3.51248	3.51347	3.51676	3.52163	3.52859	3.5361	3.54383	3.55279	3.5628	3.5681	3.57959	3.59135	3.59298	3.60126	3.61314	3.62632	3.6463	3.65921	3.68045	3.69922	3.72123	3.74196	3.76322	3.7834	3.80297	3.82024	3.83474	3.84015	3.83732	3.84553	3.85369	3.83651	3.82061	3.79738	3.7747	3.74684	3.71766	3.68667	3.65264	3.61997	3.58361	3.55148	3.50888	3.47466	3.44458	3.41015	3.40701	3.40223	3.40663	3.41051	3.51	3.55534	3.61311	3.6523	3.69013	3.70478	3.72601	3.73872	3.73229	3.63373	3.58997	3.53789	3.48519	3.44172	3.40966	3.38385	3.38183	3.35312	3.40973	3.51467	3.6328	3.78275	3.95119	4.04935	4.01311	4.00566	3.95537	3.9237	4.00365	4.00567	3.98467	3.94913	3.88073	3.85709	3.85222	3.86206	3.86848	3.85011	3.82231	3.7886	3.75189	3.71141	3.68305	3.66103	3.64034	3.63592	3.62405	3.60113	3.6245	3.64936	3.66156	3.6554	3.64603	3.63831	3.63229	3.62511	3.61957	3.61201	3.60889	3.60204	3.59749	3.59713	3.59849	3.59783	3.59069	3.54988	3.51631	3.45842	3.43041	3.3953	3.47417	3.48177	3.48525	3.47567	3.41626	3.29947	2.98477
-20	20	3.84316	4.07948	4.25662	4.38665	4.34391	4.2997	4.24552	4.19614	4.14433	4.10003	4.05366	4.01614	3.97934	3.9636	3.95082	3.95377	3.96003	3.98022	4.00055	4.04688	4.10753	4.16444	4.23532	4.3035	4.35411	4.3782	4.30691	4.45452	4.39974	4.02651	4.23208	4.2821	4.27202	4.30484	4.3324	4.27299	4.24708	4.20908	4.17634	4.15448	4.17199	4.19977	4.2493	4.24671	4.24272	4.23388	4.22444	4.20888	4.19942	4.17988	4.17447	4.16411	4.12064	4.07648	4.05075	4.0371	4.01792	4.00756	3.99616	3.98983	3.9845	3.98248	3.98602	3.9882	4.01939	4.02981	4.05827	4.07856	4.09718	4.11532	4.13312	4.14928	4.16727	4.1819	4.19955	4.21128	4.197	4.16162	4.13	4.08971	4.04794	4.02281	3.99739	3.95585	3.92877	3.9063	3.91321	3.92707	3.94856	3.97302	4.02416	4.06629	4.14923	4.24332	4.15831	3.99696	3.57653	3.40372	3.47277	3.92554	4.11128	4.14939	4.12548	4.09677	4.09287	4.09456	4.06099	4.0239	3.98767	3.96093	3.90496	3.89915	3.93786	4.02719	4.16129	4.28256	4.30206	4.27026	4.2544	4.22634	4.141	4.08839	4.03997	3.9825	4.02967	3.94444	3.84008	3.78527	3.73846	3.61952	3.51335	3.44955	3.43055	3.39025	3.45395	3.53578	3.62405	3.72964	3.83676	3.94028	3.99911	4.06229	4.06344	4.04677	4.03515	4.00897	3.91979	3.82085	3.79414	3.77983	3.76955	3.76278	3.80103	3.83236	3.87024	3.91017	3.94746	3.98656	4.02196	4.05996	4.09663	4.13289	4.16664	4.19053	4.19618	4.22479	4.25005	4.27889	4.30499	4.32875	4.35277	4.37408	4.39324	4.396	4.41013	4.431	4.38713	4.34876	4.29406	4.24397	4.18265	4.07468	4.00409	3.92005	3.85261	3.8079	3.78658	3.81342	3.8951	4.01522	4.11913	4.24203	4.369	4.4855	4.60903	4.60565	4.56702	4.51906	4.47974	4.41849	4.35964	4.39407	4.38396	4.36724	4.30931	4.12575	4.18283	4.27837	4.40881	4.38652	4.35597	4.40151	4.42877	4.45783	4.49933	4.54288	4.46344	4.36137	4.34071	4.32217	4.30952	4.27517	4.26068	4.2487	4.22514	4.21678	4.22657	4.23389	4.22824	4.27005	4.28186	4.3253	4.34995	4.37009	4.38467	4.39102	4.40106	4.36591	4.31708	4.21948	4.11605	4.01712	3.9314	3.85121	3.79685	3.7608	3.79682	3.8829	3.98501	4.10453	4.23101	4.35648	4.44876	4.46602	4.43479	4.40395	4.36772	4.31794	4.27575	4.23782	4.19956	4.18078	4.20901	4.2261	4.22127	4.23071	4.25331	4.29549	4.32619	4.37132	4.4018	4.42861	4.41562	4.36751	4.33262	4.28013	4.22935	4.17966	4.12198	4.03417	3.99787	3.9355	3.91505	3.89841	3.91281	3.91181	3.91741	3.95811	3.97738	4.00797	4.03158	4.06893	4.05232	4.02168	3.99875	3.96884	3.91669	3.92768	3.9167	3.91647	3.94614	3.95886	3.97438	3.99084	4.01379	3.99697	3.97924	3.96281	3.94292	3.92823	3.91623	3.89558	3.89115	3.89045	3.90052	3.89533	3.91964	3.94327	3.99157	4.02746	4.09094	4.14199	4.1879	4.20467	4.18964	4.1546	4.11912	4.08886	4.05707	4.03244	4.03265	4.01923	4.0011	3.98902	3.97342	3.96291	3.95433	3.94741	3.94137	3.93674	3.92999	3.92436	3.9191	3.91492	3.91016	3.9069	3.90337	3.90145	3.89931	3.89899	3.89098	3.88091	3.87336	3.86602	3.8605	3.85615	3.85343	3.85032	3.84948	3.84763	3.84569	3.84849	3.86235	3.88014	3.90271	3.91531	3.92666	3.94231	3.96748	3.98839	4.03011	4.03167	4.03502	4.03192	4.02866	4.02168	4.01261	4.00181	3.98502	3.97126	3.82543	3.81691	3.80978	3.8116	3.81293	3.86526	3.88656	3.91707	3.9438	3.97551	4.00915	4.03966	4.07223	4.10218	4.13435	4.15972	4.18489	4.20223	4.21113	4.20145	4.21976	4.24395	4.26339	4.28814	4.30763	4.3295	4.34614	4.365	4.3762	4.39333	4.40522	4.41392	4.43942	4.40883	4.3806	4.34244	4.30528	4.20204	4.13336	4.06634	4.00718	3.9601	3.92378	3.91388	3.8843	3.97011	4.05939	4.15125	4.25013	4.35204	4.44097	4.53444	4.58472	4.59001	4.59886	4.58577	4.57071	4.54675	4.5218	4.49547	4.47906	4.46611	4.4575	4.43802	4.42301	4.47566	4.57833	4.65805	4.74023	4.82026	4.9118	5.01271	5.10782	5.21152	5.3163	5.41691	5.49849	5.5797	5.66018	5.7299	5.78176	5.83663	5.8855	5.93884	6.00084	6.06912	6.13677	6.1817	6.34249	6.49362	6.67949	6.90336	7.14461	7.3751	7.61081	7.87853	8.16993	8.51496	8.91579	9.37488	9.88834	10.4888	11.1537	11.9375	12.7688	13.7239	14.7664	15.9531	17.3755	19.0827	21.2828	23.8547	28.4421	32.535	38.0821	43.7807	57.2092	67.3969	86.0165	105.643	125.454	157.689	169.3	166.424	151.414	123.361	103.621	85.6948	65.7828	56.1904	45.3169	36.5505	32.3441	26.0561	22.352	20.6716	19.2368	17.6299	16.2155	14.9405	13.8017	12.8046	11.8712	11.0158	10.2845	9.67565	9.13309	8.72359	8.3668	8.0689	7.7981	7.59337	7.4066	7.25741	7.09731	6.98506	6.80432	6.61938	6.4477	6.26717	6.03095	5.77327	5.52845	5.30917	5.12163	5.01232	4.92918	4.83789	4.85966	4.8927	4.89086	4.93503	4.9967	5.11113	5.2235	5.29767	5.3096	5.2826	5.24302	5.20596	5.15734	4.88209	4.71002	4.60493	4.47269	4.61587	4.67829	4.67185	4.60164	4.52254	4.45796	4.40409	4.36356	4.29968	4.24276	4.18532	4.07343	3.98361	3.92177	3.88854	3.87624	3.8811	3.88976	3.90125	3.94887	4.00347	4.06307	4.15432	4.22653	4.29822	4.36321	4.34894	4.32278	4.29291	4.26437	4.26074	4.2834	4.29835	4.28674	4.27473	4.28116	4.28288	4.27413	4.1995	4.05756	3.9047	3.83266	3.80739	3.97084	4.05566	4.07328	4.03106	4.01904	3.97453	3.96358	3.96244	3.98189	3.89206	3.76992	3.62027	3.71296	3.79	3.76675	3.71788	3.68287	3.69826	3.75494	3.83033	3.86015	3.88623	3.85769	3.81339	3.79395	3.75547	3.71238	3.63812	3.64276	3.66968	3.70416	3.7456	3.76497	3.78637	3.80624	3.8247	3.83041	3.84291	3.85443	3.86359	3.87254	3.86819	3.86414	3.86631	3.85699	3.84909	3.84652	3.78312	3.73651	3.68674	3.6338	3.5954	3.60402	3.64244	3.62509	3.5969	3.56933	3.51618	3.45798	3.39865	3.35065	3.30369	3.35504	3.3676	3.39341	3.41775	3.47474	3.54394	3.61416	3.69689	3.77895	3.83588	3.80933	3.81376	3.81806	3.81233	3.81008	3.7963	3.65119	3.65937	3.66744	3.58545	3.47902	3.35392	3.21937	3.1184	3.03037	3.52865	3.53786	3.53272	3.52722	3.52405	3.5216	3.528	3.5316	3.52362	3.55032	3.58014	3.60937	3.66378	3.681	3.69078	3.69813	3.70607	3.71273	3.71985	3.72596	3.73197	3.73785	3.7446	3.75158	3.78045	3.78195	3.78513	3.78364	3.78501	3.78019	3.75704	3.73204	3.67276	3.61916	3.56611	3.53163	3.49331	3.50536	3.50513	3.49815	3.50426	3.50634	3.51671	3.5283	3.54921	3.57513	3.61133	3.66591	3.68089	3.72828	3.75004	3.79923	3.59399	3.5383	3.67371	3.74509	3.82169	3.84624	3.8357	3.82721	3.78376	3.74525	3.72499	3.70367	3.68579	3.67364	3.70979	3.71271	3.72622	3.74129	3.75488	3.7674	3.78155	3.79536	3.82077	3.83456	3.84841	3.85918	3.87853	3.89174	3.89728	3.90712	3.90721	3.91147	3.90699	3.86911	3.85477	3.83769	3.82774	3.81157	3.80075	3.79101	3.77805	3.7699	3.75678	3.75153	3.74178	3.73532	3.73521	3.73442	3.72783	3.72073	3.71363	3.66114	3.6795	3.70496	3.73018	3.76356	3.80237	3.84785	3.89047	3.93285	4.00729	4.00564	4.00896	4.01082	4.01682	4.02473	4.02875	4.03258	4.0369	4.04018	4.04483	4.04625	4.03741	4.02669	4.01842	4.00181	3.99726	3.98972	3.98625	3.97898	3.97719	3.98667	3.98986	3.99	4.00246	4.02726	4.01747	4.00424	3.98481	3.98267	3.97701	3.96967	3.98494	3.99839	3.96543	3.92253	3.88099	3.83984	3.80236	3.76506	3.76976	3.75582	3.73402	3.71829	3.69978	3.67719	3.64534	3.6331	3.59658	3.59818	3.60179	3.61061	3.6218	3.634	3.65146	3.67625	3.69584	3.72019	3.74136	3.75956	3.78194	3.79776	3.81783	3.83306	3.84858	3.86292	3.87578	3.88908	3.89772	3.87442	3.84182	3.85054	3.85507	3.88423	3.886	3.87988	3.87807	3.87122	3.8653	3.86133	3.85457	3.84888	3.83796	3.84329	3.8292	3.8285	3.79705	3.75428	3.71673	3.68748	3.669	3.65959	3.63846	3.64368	3.68044	3.75214	3.83749	3.91118	3.98997	4.0565	4.10508	4.1366	4.11685	4.05245	3.99257	3.90418	3.82628	3.73334	3.64046	3.53656	3.4308	3.33159	3.24097	3.15587	3.20108	3.86346	3.92441	3.92094	3.75203	3.50771	3.60913	3.51914	3.55784	3.59274	3.64353	3.69392	3.76337	3.81306	3.82832	3.80814	3.76315	3.74561	3.76284	3.78377	3.80297	3.81857	3.82305	3.83371	3.84732	3.86371	3.89272	3.92508	3.96297	3.98691	4.02397	4.05367	4.07759	4.04562	4.01598	3.94767	3.89774	3.89585	3.92298	4.00511	3.95233	3.87934	3.86429	3.86206	3.81713	3.78528	3.76167	3.75979	3.76758	3.79478	3.8472	3.92131	4.01378	4.04227	4.03303	4.02047	4.01387	4.0046	4.01598	4.01482	4.02699	4.03119	4.01053	3.97121	3.93927	3.90765	3.8517	3.78806	3.70433	3.65424	3.66946	3.70584	3.79653	3.83809	3.88172	3.92074	3.89792	3.87413	3.86587	3.85813	3.83882	3.79554	3.73918	3.69488	3.78461	3.83038	3.84755	3.85494	3.85763	3.8715	3.81018	3.79342	3.77412	3.77746	3.75472	3.73502	3.71274	3.70914	3.729	3.67302	3.60418	3.49515	3.40235
0	-20	3.85102	3.96718	4.07358	4.17548	4.24961	4.26066	4.29835	4.30172	4.31717	4.32109	4.32661	4.32886	4.33075	4.33	4.32461	4.29347	4.26197	4.22768	4.19423	4.16178	4.13414	4.11071	4.09622	4.11866	4.11327	4.15394	4.19332	4.24534	4.31582	4.39207	4.45445	4.51945	4.57194	4.59305	4.57518	4.54156	4.50672	4.43691	4.34432	4.2532	4.18708	4.13021	4.08687	4.09818	4.10982	4.15756	4.25094	4.33428	4.43977	4.51957	4.58901	4.62336	4.58561	4.53412	4.47733	4.43321	4.45373	4.49144	4.47386	4.46069	4.39005	4.31758	4.25035	4.16454	4.14325	4.1626	4.18032	4.19979	4.21925	4.24367	4.27136	4.29875	4.03484	3.86718	4.02262	4.36405	4.33137	4.30507	4.27187	3.69759	3.49178	3.68944	3.34832	3.41937	3.4898	4.05925	4.02701	3.99135	4.00256	4.0037	4.00938	3.9994	4.00091	4.00747	4.00593	4.01476	4.01951	4.02947	4.03694	4.04763	4.0631	4.07582	4.0901	4.09882	4.11681	4.13212	4.14457	4.14951	4.1487	4.11165	4.01085	3.88697	3.75763	3.65917	3.58434	3.56174	3.72852	3.89381	4.07448	4.09351	4.1285	4.16561	4.2316	4.19247	4.06893	3.9175	3.97919	4.02488	4.06843	4.1084	4.13857	4.10033	3.99905	3.89477	3.86801	3.86827	3.87551	3.91885	3.97044	4.05261	4.12474	4.181	4.23055	4.23927	4.24903	4.25748	4.26972	4.22944	4.15012	4.06866	4.06384	4.07703	4.10944	4.1412	4.17265	4.2058	4.23046	4.25287	4.27011	4.28394	4.29915	4.28825	4.25919	4.22929	4.21287	4.18962	4.16323	4.14536	4.1378	4.16229	4.19616	4.27099	4.28461	4.29081	4.26336	4.22797	4.2005	4.19204	4.15072	4.11698	4.04196	3.91263	3.91343	3.92552	4.00071	4.07727	4.13855	4.20555	4.28801	4.34555	4.38689	4.39805	4.40527	4.39008	4.36746	4.33852	4.31556	4.29148	4.27257	4.25272	4.25395	4.26666	4.25899	4.26858	4.28528	4.28962	4.28659	4.28974	4.28779	4.28269	4.28134	4.25692	4.24729	4.24072	4.23207	4.22644	4.21998	4.2157	4.20474	4.19488	4.19424	4.19483	4.19822	4.20165	4.20824	4.21505	4.22868	4.22571	4.22397	4.2183	4.21703	4.2148	4.21076	4.20586	4.21037	4.20907	4.20931	4.19807	4.20073	4.28252	4.29576	4.27762	4.26283	4.25359	4.24948	4.24976	4.27109	4.26443	4.26496	4.26586	4.2829	4.22902	4.168	4.10668	4.05074	4.00791	3.96677	3.94527	3.94046	3.92937	3.93484	3.95028	3.96894	4.00577	4.04928	4.09275	4.1449	4.19373	4.18042	4.18824	4.20874	4.23128	4.26394	4.30113	4.33662	4.3207	4.30218	4.26535	4.22837	4.18234	4.12826	4.10154	4.07348	4.05235	4.0407	4.01843	4.00788	4.00907	4.00496	4.00004	4.00451	4.00029	4.01831	4.02855	4.02389	4.01411	4.00451	3.98842	3.9738	3.94195	3.90889	3.86943	3.83565	3.78272	3.73878	3.6917	3.63726	3.6019	3.56293	3.51529	3.52305	3.55378	3.58201	3.64222	3.67292	3.6217	3.54177	3.45567	3.50141	3.55096	3.62918	3.71003	3.79325	3.88475	3.91075	3.93974	3.95155	3.92997	3.90538	3.88313	3.85387	3.83204	3.81369	3.79379	3.78958	3.79399	3.84709	3.85692	3.8711	3.88278	3.89214	3.89311	3.85148	3.80576	3.76868	3.73588	3.71665	3.70166	3.69523	3.71496	3.65958	3.71797	3.784	3.82553	3.85585	3.89888	3.93753	4.00667	4.00571	4.00871	3.99332	3.98395	3.95426	3.91409	3.91006	3.90271	3.9271	3.91964	3.93262	3.92705	3.96282	3.99744	4.03033	4.01982	4.054	4.05386	4.04988	4.05085	4.04431	4.05871	4.0633	4.08876	4.04103	4.02816	4.01716	4.00606	4.02576	4.03475	4.05117	4.06629	4.07845	4.09523	4.10791	4.14605	4.15316	4.15737	4.1621	4.16191	4.16526	4.16218	4.1636	4.15625	4.1577	4.13974	4.13624	4.13419	4.13379	4.13734	4.13488	4.14088	4.14859	4.15865	4.17719	4.19111	4.22438	4.24563	4.26873	4.28995	4.31247	4.33651	4.36238	4.39129	4.42045	4.45177	4.48376	4.51904	4.55537	4.602	4.64929	4.70611	4.76419	4.84054	4.92535	5.01734	5.08636	5.08241	5.07232	5.06218	5.04519	5.0142	4.96133	4.90774	4.81196	4.77556	4.75541	4.75697	4.82007	4.87521	4.95814	5.03922	5.12983	5.22509	5.32603	5.43243	5.53504	5.61481	5.61737	5.59888	5.61476	5.64674	5.70527	5.77657	5.84716	5.92324	6.02638	6.21009	6.39535	6.56395	6.73806	6.88356	6.98677	7.1125	7.25431	7.42617	7.63435	7.89697	8.23882	8.60949	9.04286	9.53203	10.1616	10.8351	11.5809	12.3489	13.678	14.5222	15.7017	16.9508	18.4385	20.2479	22.5954	25.8312	30.045	35.0633	41.2521	49.394	58.0366	69.834	85.808	108.778	128.828	154.294	173.907	184.956	179.324	157.676	134.067	104.637	87.3412	65.1122	56.7399	46.2377	39.3144	33.4141	29.0427	25.4323	22.4692	20.0336	18.2932	17.0826	15.1187	13.8391	13.0893	12.2093	11.5648	10.9438	10.4091	9.9351	9.5129	9.13851	8.79967	8.53417	8.17682	7.83352	7.51959	7.23445	6.97581	6.73387	6.51314	6.30981	6.1305	5.97393	5.83991	5.70984	5.62644	5.55831	5.5	5.45035	5.40908	5.37304	5.34452	5.31648	5.29768	5.2584	5.19715	5.15952	5.08876	5.00789	4.92761	4.84328	4.75904	4.67991	4.61254	4.54187	4.48206	4.41467	4.39093	4.41168	4.4132	4.42687	4.45562	4.46966	4.49546	4.51674	4.53385	4.56046	4.55409	4.52489	4.49261	4.46677	4.43299	4.42387	4.4148	4.42101	4.40867	4.37567	4.34625	4.31952	4.31606	4.31716	4.31715	4.32389	4.33861	4.35141	4.34082	4.29816	4.26663	4.18422	4.16998	4.15898	4.15192	4.12275	4.05594	3.99908	3.95697	3.88826	3.87879	3.87837	3.88592	3.93895	3.94643	3.96045	3.96813	3.97963	3.98521	3.99218	3.99546	3.99673	3.97674	3.95838	3.9447	3.94492	3.94154	3.94233	3.94682	3.96622	3.9703	3.97231	3.97575	3.993	3.97679	3.95995	3.93938	3.92049	3.89618	3.87208	3.82306	3.78845	3.75711	3.73086	3.70459	3.67931	3.66052	3.64221	3.62554	3.63456	3.64023	3.65055	3.66182	3.68735	3.70844	3.72937	3.75281	3.77712	3.81037	3.82671	3.85405	3.8644	3.869	3.87145	3.87367	3.86233	3.8515	3.82852	3.81101	3.78787	3.76471	3.73364	3.7229	3.71743	3.70881	3.70385	3.72808	3.73408	3.73683	3.74352	3.74482	3.73822	3.73347	3.72923	3.70157	3.66692	3.59216	3.53917	3.49168	3.45349	3.42632	3.4094	3.40365	3.46381	3.52021	3.59114	3.65201	3.71507	3.77335	3.82801	3.86584	3.85872	3.85059	3.84401	3.8366	3.81771	3.7785	3.73628	3.69185	3.64956	3.61204	3.57605	3.53674	3.51952	3.52843	3.53396	3.55038	3.56705	3.59008	3.61061	3.63524	3.65971	3.68439	3.69844	3.71687	3.72161	3.73005	3.68884	3.64326	3.61852	3.57276	3.51807	3.47725	3.44417	3.48564	3.58254	3.68253	3.64316	3.53076	3.50162	3.48662	3.47583	3.46863	3.47442	3.48485	3.49715	3.50905	3.52719	3.54498	3.58086	3.63027	3.65746	3.68227	3.71955	3.73625	3.71652	3.71228	3.72224	3.74044	3.76793	3.80861	3.85485	3.90303	3.9335	3.95411	3.97547	3.99168	3.97338	3.95734	3.94344	3.93451	3.91827	3.85981	3.83336	3.82274	3.82007	3.80921	3.77555	3.74164	3.70736	3.68007	3.65365	3.63412	3.61813	3.63422	3.63807	3.60502	3.6767	3.76538	3.84039	3.86103	3.90784	3.89826	3.97156	3.98845	3.95783	3.8854	3.77652	3.65491	3.64904	3.64939	3.65774	3.64767	3.62448	3.68189	3.7434	3.76736	3.79167	3.81443	3.82925	3.7658	3.77067	3.77588	3.78325	3.79452	3.82108	3.83814	3.87229	3.88146	3.89075	3.89619	3.89964	3.8984	3.89812	3.89517	3.89168	3.88471	3.88368	3.87857	3.8693	3.85634	3.86173	3.87484	3.88272	3.89899	3.91014	3.92865	3.94276	3.9618	3.97773	3.99576	4.01206	4.02787	4.051	4.06245	4.07394	4.08301	4.08691	4.09138	4.09348	4.10345	4.09024	4.07108	4.05306	4.00916	3.96991	3.93591	3.90516	3.87152	3.84017	3.80808	3.76158	3.73921	3.7173	3.72639	3.73871	3.79405	3.83665	3.9016	3.94494	3.97777	3.96771	3.96138	3.94359	3.87891	3.84257	3.80898	3.88486	3.90265	3.93135	3.95458	3.99867	4.03423	4.03362	4.03086	3.99553	3.9413	3.8881	3.83191	3.77748	3.71947	3.66368	3.6123	3.56516	3.52141	3.45597	3.43532	3.4151	3.44991	3.48173	3.50606	3.52317	3.54793	3.57174	3.59819	3.61685	3.64609	3.66925	3.69829	3.70233	3.70192	3.70169	3.70549	3.71046	3.71869	3.72945	3.74215	3.76141	3.7757	3.77967	3.76547	3.7512	3.73391	3.71636	3.6964	3.67668	3.65429	3.62576	3.58166	3.5665	3.51777	3.54383	3.56053	3.59356	3.62893	3.67789	3.72283	3.77814	3.86221	3.93217	4.0102	3.98905	3.95136	3.84716	3.75446	3.70721	3.63329	3.55801	3.50693	3.66821	3.67814	3.70137	3.70487	3.70168	3.70359	3.71448	3.71582	3.75631	3.78902	3.82886	3.87758	3.90526	3.94137	3.97123	3.98726	4.0028	4.01227	4.00223	3.99412	3.96157	3.94422	3.91918	3.89659	3.87394	3.85226	3.87323	3.86576	3.85679	3.85062	3.84292	3.83389	3.84167	3.83908	3.82914	3.8309	3.83126	3.8366	3.82626	3.83568	3.83603	3.8405	3.84315	3.84682	3.84628	3.84599	3.84814	3.83819	3.83121	3.83711	3.80747	3.77759	3.74552	3.71087	3.67788	3.64006	3.60812	3.57255	3.53965	3.5116	3.48626	3.47466	3.46326	3.4849	3.49818	3.51693	3.53262	3.56285	3.58927	3.61726	3.64931	3.68424	3.71749	3.75622	3.78958	3.81951	3.74839	3.61376	3.45385
0	0	5.62802	5.43044	5.15754	4.97879	4.86832	4.74289	4.62561	4.53529	4.4716	4.44233	4.34762	4.29814	4.32956	4.3702	4.41524	4.46612	4.51779	4.53121	4.54811	4.58082	4.61613	4.63746	4.63577	4.63796	4.66772	4.67845	4.69425	4.71539	4.73921	4.72141	4.67694	4.62956	4.58405	4.5378	4.49333	4.45017	4.40941	4.37636	4.35383	4.37094	4.40868	4.46442	4.6065	4.70503	4.71154	4.73098	4.72768	4.72999	4.72512	4.72692	4.73439	4.75022	4.68391	4.61496	4.54351	4.48959	4.4017	4.32049	4.21334	4.17341	4.13617	4.13017	4.27209	4.32674	4.40035	4.48322	4.54427	4.57391	4.58916	4.57833	4.56275	4.52047	4.42451	4.35535	4.27626	4.21323	4.17274	4.14592	4.14305	4.18236	4.26108	4.34522	4.42424	4.5031	4.56797	4.56703	4.57007	4.57199	4.58537	4.59958	4.60635	4.61156	4.60065	4.60927	4.58079	4.55551	4.55782	4.54324	4.54561	4.52507	4.52281	4.51322	4.47695	4.4426	4.40275	4.34875	4.3201	4.33642	4.33834	4.30098	4.25683	4.22406	4.17338	4.10827	4.15424	4.21298	4.17454	4.16425	4.13005	4.13043	4.13326	4.13452	4.15176	4.2081	4.23199	4.25122	4.31452	4.34989	4.38835	4.39684	4.40688	4.44828	4.4934	4.5078	4.53667	4.53915	4.55046	4.55445	4.55879	4.58514	4.56354	4.53403	4.48937	4.42391	4.34767	4.28792	4.24743	4.21512	4.2114	4.1948	4.19122	4.1957	4.22895	4.25189	4.29773	4.35061	4.40991	4.40296	4.39039	4.38933	4.38433	4.38936	4.38662	4.38485	4.38472	4.38474	4.38721	4.38917	4.3942	4.40267	4.40488	4.40843	4.41796	4.4296	4.44672	4.46351	4.47871	4.495	4.49284	4.50895	4.5073	4.50312	4.48891	4.482	4.45372	4.42996	4.42598	4.45194	4.49757	4.47163	4.4143	4.37346	4.36691	4.59363	4.59833	4.59776	4.5947	4.53759	4.47905	4.51667	4.48901	4.46924	4.48635	4.49869	4.53786	4.57494	4.59273	4.61634	4.63959	4.64823	4.65247	4.68096	4.68586	4.69398	4.67112	4.64971	4.63033	4.61007	4.59593	4.583	4.57376	4.56828	4.56582	4.56938	4.58247	4.58935	4.61174	4.62845	4.65857	4.68432	4.68702	4.70541	4.71414	4.74401	4.74945	4.77572	4.74875	4.72684	4.66738	4.62281	4.60492	4.59001	4.6007	4.5934	4.58815	4.62171	4.63989	4.6711	4.70152	4.73537	4.71281	4.57668	4.4517	4.32877	4.22371	4.18132	4.19147	4.23892	4.29083	4.28876	4.28678	4.32762	4.37813	4.42444	4.48522	4.56139	4.63209	4.65495	4.65181	4.60835	4.5789	4.53238	4.46861	4.35688	4.34155	4.39318	4.36731	4.31031	4.2889	4.28277	4.2847	4.3017	4.31257	4.3592	4.41707	4.47839	4.45735	4.39243	4.24078	4.10042	3.94356	3.74743	3.70927	3.68555	3.67941	3.68522	3.70138	3.7258	3.7523	3.78187	3.81317	3.84979	3.8817	3.90904	3.92957	3.94069	3.92152	3.90798	3.92704	3.94167	3.92539	3.93749	3.95101	3.93942	3.9203	3.91205	3.88875	3.89033	3.90249	3.91267	3.98515	4.03879	4.07632	4.08908	4.05095	4.03371	4.04597	4.03926	4.05465	4.07184	4.08619	4.08711	4.07223	4.05178	4.01357	4.00098	3.96625	3.92635	3.88669	3.84834	3.81013	3.77695	3.74673	3.81425	3.8465	3.86992	3.88193	3.915	3.93697	3.91576	3.90385	3.91449	3.93642	3.9771	4.01126	4.04995	4.09591	4.12973	4.16337	4.16351	4.14952	4.1527	4.18237	4.22159	4.25615	4.29238	4.32776	4.28415	4.20142	4.13221	4.21029	4.26705	4.35145	4.45106	4.53567	4.53918	4.51616	4.47439	4.42027	4.36247	4.32576	4.3041	4.26689	4.28771	4.32251	4.34627	4.36218	4.37112	4.38057	4.39786	4.40456	4.3839	4.32271	4.29412	4.27436	4.25765	4.25072	4.24755	4.24428	4.24828	4.24635	4.2589	4.2589	4.27668	4.31566	4.36412	4.40056	4.4383	4.4831	4.54191	4.58103	4.61736	4.64333	4.65583	4.64776	4.63221	4.59986	4.59216	4.55834	4.54684	4.56519	4.6205	4.68283	4.77906	4.83905	4.86955	4.90536	4.88089	4.87222	4.87657	4.88563	4.90556	4.9683	5.00235	5.04664	5.04747	5.06787	5.09687	5.13248	5.17844	5.22851	5.31983	5.399	5.45938	5.4833	5.49772	5.49608	5.51277	5.52863	5.53005	5.56611	5.55341	5.58771	5.59959	5.67828	5.8276	5.94927	6.07426	6.22821	6.39917	6.69015	6.86984	6.98297	7.03854	7.10434	7.2155	7.34916	7.51428	7.87975	8.16421	8.48137	8.73493	8.98238	9.12395	9.30182	9.55882	9.90169	10.3556	10.7972	11.514	12.1499	12.9579	13.9331	15.1767	16.5612	18.2333	20.1786	22.4357	24.9652	27.8226	31.4748	35.4138	40.2037	46.8494	57.9471	65.1606	84.1091	95.8161	125.524	157.901	185.119	220.048	236.539	235.973	209.508	177.806	139.664	117.378	96.7946	76.5601	62.957	52.0013	42.2268	35.3749	34.1376	27.1645	27.4555	23.2053	21.3574	18.7365	17.5502	16.5987	15.5009	14.3225	13.3415	12.5142	11.8125	11.2513	10.7745	10.1971	9.71395	9.16678	8.75005	8.39497	8.09643	7.77811	7.52782	7.32346	7.18037	7.04723	6.94737	6.85989	6.7071	6.56081	6.43445	6.32803	6.23025	6.14979	6.0749	6.009	5.95159	5.89999	5.86516	5.82035	5.78812	5.72989	5.68018	5.63081	5.57328	5.52673	5.45609	5.34247	5.27797	5.22038	5.17791	5.10087	5.05978	5.00049	4.92364	4.89032	4.87244	4.88751	4.87317	4.85541	4.83995	4.82849	4.81889	4.81311	4.82372	4.8291	4.83436	4.84531	4.85491	4.86965	4.86158	4.83861	4.80228	4.76225	4.70612	4.66495	4.59975	4.49396	4.42098	4.35826	4.30726	4.2947	4.29976	4.29903	4.30044	4.31003	4.31417	4.34769	4.3614	4.36635	4.37506	4.38025	4.366	4.35432	4.2698	4.1842	4.05445	4.04796	4.05322	4.06998	4.07661	4.1006	4.11361	4.13886	4.15546	4.21955	4.21802	4.21002	4.21084	4.21802	4.24016	4.24991	4.26239	4.168	4.15731	4.15353	4.14757	4.1508	4.15048	4.17995	4.18598	4.21859	4.22159	4.23959	4.24414	4.23898	4.22251	4.20633	4.18361	4.15696	4.12181	4.0839	4.02609	4.02004	4.00785	4.00885	4.00031	4.01485	4.03128	4.04494	4.05286	4.06824	4.07895	4.09924	4.12696	4.12284	4.12776	4.10939	4.09899	4.09499	4.07358	4.04655	4.02141	3.99525	4.00182	3.99333	3.98375	3.95798	3.93554	3.90705	3.90097	3.92356	3.95168	3.96668	3.99177	3.99588	4.01053	3.99419	4.00166	4.04637	4.07195	4.10457	4.13468	4.18867	4.22493	4.26544	4.28321	4.26591	4.27841	4.20175	4.16126	4.12228	4.05301	3.97605	3.9451	3.89196	3.92582	3.94984	3.9898	4.03949	4.08392	4.07186	4.05422	4.01933	3.90406	3.89327	3.89327	3.89198	3.93633	3.96011	4.00076	4.04445	4.0876	4.09222	4.0911	4.0854	4.07246	4.03908	3.97999	3.93025	3.87428	3.82684	3.78069	3.72129	3.69146	3.69233	3.73573	3.77068	3.79989	3.83184	3.86801	3.90627	3.94819	4.00223	4.05466	4.11242	4.14747	4.14762	4.14982	4.13226	4.11729	4.07597	4.04747	4.03985	4.04216	4.03919	4.04667	4.05296	4.04748	4.01471	3.97073	3.94635	3.92317	3.91445	3.89829	3.89188	3.87967	3.89348	3.90457	3.90855	3.92195	3.95383	3.98271	3.97295	3.98618	3.98166	3.99108	4.01885	4.0646	4.10616	4.12667	4.14986	4.16736	4.08574	4.13659	4.17039	4.23277	4.2631	4.29604	4.30605	4.29343	4.24046	4.13254	3.96171	3.94148	3.9333	4.00183	3.96918	3.92852	3.904	3.85007	3.86384	3.92101	4.02174	4.19229	4.24375	4.23002	4.21783	4.20729	4.19663	4.18643	4.17679	4.17501	4.17353	4.17028	4.18125	4.20037	4.13757	4.12772	4.13914	4.12377	4.12212	4.13178	4.15835	4.20139	4.22857	4.26536	4.31558	4.37268	4.38034	4.40506	4.40108	4.38638	4.27471	4.27641	4.34827	4.39767	4.48396	4.5106	4.47293	4.43432	4.34446	4.18826	4.00603	3.92363	3.81344	3.77962	3.71857	3.67191	3.67245	3.77898	3.86354	3.9576	4.07971	4.20362	4.32569	4.39622	4.44502	4.46259	4.4262	4.41792	4.3853	4.31634	4.25009	4.17046	4.11788	4.04325	4.0556	4.06594	4.07943	4.12128	4.16227	4.20544	4.25174	4.29214	4.33401	4.33252	4.32059	4.28008	4.26131	4.23106	4.1821	4.11888	4.07875	3.80937	4.15147	4.27057	4.26736	4.27596	4.20115	4.02366	3.81429	3.6812	4.17342	4.2635	4.25075	4.24369	4.28496	4.31284	4.32312	4.21805	4.12955	4.06292	4.00319	3.99953	3.96436	3.93418	3.92714	3.93981	4.00356	4.13393	4.13667	4.15109	4.17995	4.21231	4.25702	4.2944	4.27453	4.26132	4.35119	4.42176	4.42448	4.33042	4.25459	4.16639	4.11546	4.04502	3.98255	3.95523	3.93677	3.91148	3.87661	3.88158	3.88197	3.87852	3.90256	3.94146	3.97976	3.99045	4.0029	4.00035	3.99413	4.00361	4.01308	4.02321	4.03175	4.02947	4.07531	4.10658	4.11534	4.14488	4.14866	4.10852	4.05289	3.99139	3.90893	3.85158	3.82288	3.83421	3.86297	3.90418	3.93688	4.00123	4.05189	4.11418	4.16748	4.20522	4.21122	4.20538	4.19629	4.2187	4.20903	4.10997	4.06939	4.03052	3.99397	3.9664	3.97807	4.00899	4.03608	4.04365	4.04441	4.0018	3.99772	3.9723	3.94205	3.95936	3.95993	3.96027	3.94551	3.92663	3.92246	3.92606	3.94953	3.98485	4.0082	4.03308	4.06565	4.0824	4.07706	4.07087	4.04899	4.02822	4.00678	3.96659	3.8983	3.90619	3.93898	3.98743	4.06215	4.12008	4.17667	4.16207	4.14993	4.13221	4.11788	4.09298	4.07428	4.03645	4.015	3.97251	3.94839	3.91445	3.88887	3.85656	3.81142	3.70318	3.58778	3.45984	3.30986
0	20	4.27211	4.23022	4.18613	4.17532	4.13049	4.14329	4.14236	4.11326	4.09566	4.11491	4.16105	4.17429	4.16186	4.11132	4.06865	4.04352	4.04681	4.0616	4.07363	4.08053	4.10672	4.1538	4.14838	4.12472	4.10345	4.08459	4.07448	4.08185	4.12935	4.1436	4.14878	4.15622	4.1636	4.09827	4.04414	4.01748	4.01632	4.01166	4.01038	4.00874	3.99517	4.01923	4.03079	3.99658	3.9381	3.86445	3.79114	3.75185	3.73051	3.69961	3.70194	3.69752	3.71491	3.73931	3.75053	3.75921	3.79992	3.85656	3.89888	3.94713	3.95122	3.9608	3.96588	3.97105	3.89869	3.80683	3.70492	3.6479	3.6302	3.6315	3.75365	3.79125	3.77921	3.76756	3.75307	3.74487	3.73213	3.72519	3.71317	3.69049	3.69441	3.69454	3.63753	3.6174	3.60339	3.58575	3.59577	3.68274	3.7122	3.75447	3.77598	3.82915	3.86304	3.90797	3.8933	3.87636	3.88847	3.8585	3.80406	3.80638	3.83045	3.91561	3.91001	3.89909	3.89061	3.86492	3.85145	3.83457	3.83073	3.80692	3.79824	3.77367	3.75976	3.77207	3.81879	3.80459	3.78407	3.76175	3.82672	3.86936	3.89711	3.93124	3.9661	3.99148	4.00431	3.96215	3.88493	3.80458	3.7062	3.63907	3.60511	3.56083	3.52819	3.49597	3.5317	3.58751	3.68249	3.79731	3.86727	3.90534	3.94706	3.93987	3.94452	3.94388	3.96832	3.96899	3.9592	3.94208	3.9305	3.90702	3.88059	3.82265	3.75813	3.72497	3.72709	3.75262	3.82442	3.89768	3.96982	3.98043	3.99088	3.96871	3.92494	3.88276	3.84225	3.80297	3.76463	3.73229	3.69864	3.66869	3.64173	3.53211	3.53853	3.58031	3.59759	3.61912	3.64276	3.6751	3.68668	3.7299	3.81652	3.88386	3.90612	3.92118	3.92422	3.9181	3.94278	3.91012	3.87143	3.78523	3.97572	3.98156	3.95159	3.90334	3.76696	3.58694	3.78317	3.85362	3.83603	3.84708	3.84745	3.83162	3.80114	3.77959	3.75393	3.73525	3.76901	3.77247	3.78545	3.7918	3.82563	3.82475	3.82344	3.82272	3.82546	3.83551	3.84496	3.84579	3.86072	3.89235	3.90439	3.94947	3.99927	4.08075	4.11644	4.13814	4.17206	4.19295	4.19421	4.12779	3.90248	3.84999	3.87206	3.87787	3.90043	3.9296	3.96157	3.94909	3.99092	4.00257	4.00093	3.91027	3.82112	3.73241	3.64698	3.5671	3.47828	3.40485	3.35548	3.36081	3.35916	3.3735	3.4142	3.45362	3.49866	3.55169	3.60361	3.66299	3.72895	3.75576	3.78994	3.81325	3.78722	3.77464	3.77059	3.75479	3.73416	3.68507	3.68083	3.68899	3.6951	3.71224	3.72838	3.75336	3.83876	3.89611	3.93784	3.93393	3.94319	3.91873	3.80316	3.68113	3.58475	3.63468	3.7124	3.74138	3.77234	3.80125	3.80352	3.77699	3.75298	3.77777	3.818	3.77791	3.76964	3.735	3.70565	3.66699	3.64252	3.67731	3.69152	3.68164	3.69133	3.71179	3.79291	3.83316	3.83789	3.83809	3.8584	3.8991	3.91323	3.89423	3.85962	3.81612	3.8081	3.81307	3.85797	3.86912	3.89971	3.9281	3.94288	3.92677	3.94111	3.93965	3.96023	3.95184	3.98003	3.96089	3.94172	3.8867	3.82464	3.78362	3.73989	3.67105	3.62261	3.59009	3.83184	3.84068	3.85048	3.88468	3.88078	3.87829	3.8719	3.8888	3.90946	3.91651	3.91647	3.92929	3.94406	3.8921	3.86914	3.855	3.85647	3.87784	3.87723	3.87071	3.86718	3.87262	3.87467	3.86961	3.86291	3.86433	3.87336	3.83964	3.81165	3.78143	3.7562	3.7333	3.7161	3.69651	3.75716	3.76455	3.74013	3.72173	3.71456	3.73926	3.79056	3.80922	3.79089	3.75321	3.71519	3.6986	3.66517	3.63715	3.61785	3.63446	3.66911	3.74197	3.80961	3.87054	3.93477	4.00449	4.06298	4.12591	4.18346	4.1778	4.16346	4.13445	4.08252	3.90392	3.89486	3.89012	3.90195	3.91139	3.8976	3.86719	3.89162	3.9205	3.95069	3.97969	3.98644	3.96933	3.94931	3.94687	3.9464	3.92508	3.8354	3.73632	3.68047	3.64576	3.56583	3.54361	3.57706	3.63981	3.67528	3.73186	3.79051	3.84178	3.89997	3.96157	4.01887	4.07968	4.12571	4.1867	4.22045	4.25738	4.26644	4.27152	4.2967	4.33967	4.38685	4.42873	4.48175	4.51458	4.52139	4.55152	4.58393	4.62932	4.65754	4.66791	4.68894	4.72266	4.75254	4.81608	4.87485	4.81433	4.76205	4.66801	4.55393	4.58127	4.62656	5.01239	5.10933	5.26238	5.30189	5.31314	5.30857	5.31792	5.3426	5.61666	5.68749	5.74923	5.8285	5.93172	6.04889	6.22025	6.38882	6.48894	6.65214	6.88278	7.12388	7.44231	7.82786	8.33822	8.78517	9.46196	10.4124	11.1217	12.1245	13.3362	14.741	16.426	18.6441	21.2193	24.369	28.2846	32.905	40.2618	53.8137	63.1345	75.4845	94.6263	105.73	110.006	93.9907	85.8533	74.081	59.3626	46.3256	40.835	33.721	28.6074	26.0811	20.2702	14.7484	13.9242	12.1141	11.5369	10.9443	10.4219	9.87135	9.41859	8.94353	8.47913	8.02499	7.65627	7.29287	6.98696	6.67581	6.38683	6.16795	5.96281	5.80994	5.67717	5.55624	5.43906	5.36081	5.34417	5.31458	5.2751	5.21967	5.15243	5.104	5.0447	4.96195	4.87948	4.80693	4.73683	4.6708	4.60882	4.55009	4.46796	4.39962	4.35215	4.33665	4.31111	4.29386	4.24576	4.19989	4.15847	4.1151	4.07738	4.04465	4.01359	3.97481	3.94576	3.95869	3.98398	4.01078	4.02993	4.00544	4.04146	4.05538	4.06273	4.08997	4.13986	4.19799	4.17215	4.1699	4.17946	4.11037	4.02865	3.94635	3.85659	3.78866	3.70542	3.68144	3.67999	3.70222	3.72178	3.71515	3.72437	3.67748	3.64962	3.6682	3.71475	3.74174	3.76379	3.77997	3.76297	3.75911	3.75818	3.69473	3.63858	3.59913	3.55533	3.52988	3.47869	3.4599	3.47462	3.54071	3.58216	3.65371	3.74674	3.81353	3.84403	3.90479	3.99683	4.03465	4.06479	4.09534	4.07967	4.08903	4.07418	4.0417	4.02117	3.98141	3.94169	3.87684	3.83129	3.7784	3.69534	3.63175	3.55904	3.53068	3.54609	3.56312	3.55133	3.54413	3.53635	3.53465	3.54114	3.57012	3.58298	3.58901	3.60971	3.59423	3.56481	3.55099	3.52858	3.54357	3.52889	3.54752	3.55812	3.54963	3.56842	3.65159	3.70766	3.7894	3.88489	3.95143	3.99749	4.04727	4.00489	3.96193	3.9215	3.8729	3.824	3.77924	3.70184	3.62005	3.55431	3.54489	3.54416	3.5789	3.55863	3.53797	3.51371	3.51381	3.5122	3.51702	3.5365	3.55117	3.54337	3.53975	3.53059	3.48404	3.55755	3.6313	3.73395	3.82296	3.84811	3.87263	3.88877	3.79248	3.74775	3.68863	3.64751	3.56571	3.66397	3.68109	3.73723	3.74461	3.74224	3.72072	3.64061	3.53763	3.46998	3.38192	3.43946	3.51087	3.58739	3.66635	3.73329	3.78851	3.83263	3.80632	3.81427	3.83459	3.85608	3.84736	3.85104	3.80061	3.72886	3.65875	3.5791	3.51	3.43656	3.36792	3.31486	3.27029	3.26485	3.33002	3.39282	3.41099	3.44386	3.49116	3.52398	3.55839	3.6072	3.68721	3.74921	3.76607	3.76129	3.73922	3.73284	3.69005	3.6862	3.69233	3.69349	3.7003	3.68545	3.69822	3.69715	3.65512	3.64584	3.64168	3.64549	3.65034	3.65388	3.66019	3.66944	3.69617	3.73166	3.75936	3.72688	3.71925	3.69461	3.66368	3.6463	3.61362	3.54971	3.51429	3.48153	3.43456	3.36978	3.31392	3.2505	3.20271	3.15658	3.11369	3.08521	3.12341	3.14195	3.15976	3.19009	3.21651	3.24912	3.2661	3.33228	3.40529	3.47901	3.52984	3.56967	3.61663	3.62519	3.66147	3.69284	3.72337	3.7294	3.7075	3.67611	3.59997	3.53434	3.49683	3.4921	3.53408	3.55822	3.57674	3.59882	3.61558	3.66211	3.68926	3.70226	3.7277	3.77262	3.81696	3.85729	3.84808	3.80325	3.78598	3.7593	3.74608	3.73958	3.75046	3.78084	3.81389	3.81823	3.82791	3.85796	3.86822	3.85592	3.85762	3.83781	3.83167	3.83938	3.85273	3.87593	3.86575	3.87274	3.89438	3.90867	3.94889	3.94923	3.92627	3.92546	3.91777	3.91983	3.94394	3.96975	3.96478	3.97646	3.98837	3.92919	3.86527	3.79802	3.61061	3.5068	3.40035	3.30743	3.22006	3.1552	3.14447	3.22291	3.29831	3.31848	3.34709	3.40564	3.50736	3.5508	3.596	3.64854	3.69693	3.72407	3.76724	3.79187	3.78647	3.753	3.75377	3.74438	3.74555	3.73925	3.73193	3.66021	3.62183	3.57446	3.559	3.54896	3.55111	3.57457	3.59107	3.62923	3.66027	3.69737	3.7397	3.71796	3.69292	3.6558	3.59044	3.557	3.54141	3.52626	3.5373	3.55236	3.70828	3.80044	3.88936	3.92791	3.92759	3.88562	3.80054	3.7303	3.57097	3.45433	3.37941	3.35712	3.40954	3.41721	3.37436	3.42254	3.48009	3.53611	3.5598	3.54412	3.53138	3.55789	3.58405	3.59445	3.58009	3.58747	3.60481	3.61609	3.65076	3.66821	3.70353	3.76258	3.75643	3.71292	3.68103	3.65711	3.66928	3.66269	3.65723	3.67922	3.70114	3.73814	3.74765	3.7491	3.75879	3.7801	3.80094	3.77528	3.75391	3.73854	3.75567	3.78887	3.79157	3.79475	3.77173	3.74301	3.72012	3.66298	3.5959	3.54811	3.52176	3.51324	3.55682	3.62136	3.6709	3.73257	3.72378	3.71504	3.70625	3.70086	3.69313	3.68804	3.68136	3.67886	3.68137	3.67888	3.67091	3.66422	3.65501	3.6308	3.57524	3.5671	3.54721	3.52456	3.54312	3.58531	3.57663	3.57341	3.59784	3.583	3.56209	3.54069	3.51864	3.49593	3.47238	3.42171	3.37499	3.35127	3.32108	3.32168	3.31181	3.31614	3.30553	3.29705	3.29231	3.29286	3.31171	3.32929	3.4222	3.44477	3.47943	3.52713	3.54973	3.56364	3.58517	3.64888	3.74791	3.85764	3.89143	3.74539
20	-20	3.40235	3.46872	3.54774	3.5965	3.64867	3.68551	3.72075	3.74917	3.77546	3.79718	3.81955	3.83698	3.84362	3.84137	3.83541	3.82326	3.80694	3.78793	3.75582	3.71907	3.68897	3.67682	3.61779	3.5919	3.59975	3.68243	3.77513	3.76907	3.73897	3.67591	3.69816	3.72819	3.76975	3.8347	3.95813	4.04454	4.09226	4.18269	4.1853	4.15041	4.02927	3.92434	3.85573	3.85141	3.88595	3.9596	4.03065	4.04032	4.03161	4.02262	4.00735	3.99322	3.97642	3.95712	3.93917	3.91301	3.88758	3.82299	3.77591	3.73228	3.71885	3.70277	3.69537	3.68031	3.54662	3.56236	3.53902	3.58602	3.64958	3.72437	3.8065	3.81329	3.758	3.70599	3.69453	3.67681	3.64372	3.598	3.51658	3.49991	3.48736	3.47604	3.47067	3.47187	3.49353	3.50427	3.52147	3.60246	3.63621	3.66383	3.69668	3.70305	3.6908	3.66802	3.64705	3.64506	3.65588	3.65874	3.67078	3.6861	3.71025	3.72847	3.74577	3.76933	3.79006	3.80241	3.80886	3.81644	3.82048	3.82153	3.78654	3.75615	3.71751	3.66384	3.64952	3.64144	3.66193	3.67123	3.69805	3.74253	3.77621	3.80153	3.83395	3.85535	3.87682	3.89471	3.88191	3.8667	3.87121	3.87517	3.88135	3.88503	3.8921	3.89475	3.91386	3.9052	3.89839	3.88758	3.87871	3.88282	3.85306	3.79164	3.75277	3.70208	3.65602	3.58396	3.51679	3.45886	3.41363	3.40912	3.44109	3.4631	3.54159	3.59534	3.65727	3.72565	3.79073	3.83009	3.85672	3.83644	3.83219	3.81592	3.80317	3.78318	3.77417	3.76855	3.76485	3.76209	3.76207	3.76279	3.76481	3.75304	3.74464	3.74634	3.75446	3.76642	3.80944	3.83018	3.86212	3.88169	3.89721	3.90724	3.92146	3.92809	3.93805	3.94176	3.94278	3.91536	3.88453	3.83513	3.79702	3.74367	3.70946	3.68893	3.66784	3.63276	3.63858	3.68022	3.71305	3.75408	3.7742	3.79486	3.81603	3.84201	3.87077	3.88556	3.90582	3.89455	3.83926	3.7742	3.71284	3.62777	3.56378	3.49726	3.53421	3.59028	3.66438	3.74299	3.82741	3.95218	3.98751	4.00092	4.00809	4.04072	4.02687	4.00807	3.99437	3.94911	3.91455	3.84715	3.82109	3.80848	3.83674	3.85328	3.86488	3.89095	3.9312	3.9681	3.9761	3.97286	3.96799	3.9631	3.95929	3.95511	3.95135	3.94786	3.94395	3.94134	3.93754	3.9381	3.9106	3.86553	3.8164	3.85344	3.87694	3.92329	3.93346	3.9389	3.94562	3.95227	3.95999	3.95623	3.90667	3.85565	3.80995	3.75767	3.70654	3.66299	3.62002	3.61554	3.59094	3.57499	3.56432	3.55032	3.5452	3.5392	3.54047	3.54939	3.55486	3.53866	3.57976	3.62205	3.67401	3.72482	3.78481	3.84129	3.94838	3.97138	3.99125	3.99655	3.98657	3.93239	3.89155	3.83907	3.79537	3.7522	3.71598	3.67222	3.58166	3.56063	3.55642	3.58072	3.63088	3.63326	3.63978	3.64571	3.65886	3.67462	3.69069	3.70737	3.72689	3.75366	3.73525	3.71423	3.69818	3.68596	3.7042	3.72979	3.75917	3.79377	3.82837	3.86544	3.90146	3.94	3.97126	3.98638	3.99627	3.9967	3.98815	3.97522	3.95164	3.92093	3.86753	3.8392	3.81567	3.74948	3.5029	3.11625	3.2745	3.74183	3.75323	3.76263	3.76533	3.7946	3.78602	3.77988	3.76695	3.72349	3.69381	3.67695	3.66442	3.65578	3.56354	3.48488	3.40644	3.33336	3.28488	3.22355	3.20396	3.16892	3.16731	3.22683	3.29744	3.3655	3.4579	3.54239	3.63006	3.72052	3.76463	3.75653	3.75924	3.76858	3.77328	3.78463	3.79325	3.80435	3.81669	3.83234	3.84067	3.8401	3.83967	3.80915	3.78242	3.75139	3.72051	3.69212	3.68927	3.68071	3.64875	3.62344	3.54909	3.51307	3.49196	3.49392	3.52165	3.5684	3.61164	3.67243	3.70615	3.70724	3.71024	3.71495	3.73035	3.74812	3.83839	3.87813	3.93186	3.93077	3.92283	3.91419	3.82968	3.77727	3.70592	3.65535	3.59324	3.49163	3.51759	3.54379	3.63196	3.77916	3.83091	3.86581	3.89908	3.9359	3.96671	3.96939	3.95277	3.95015	3.96529	3.98666	4.01645	4.06114	4.10667	4.15415	4.17687	4.20156	4.20627	4.22658	4.27333	4.29812	4.31872	4.33078	4.37104	4.3524	4.31399	4.27242	4.25672	4.26452	4.35883	4.38087	4.41199	4.41527	4.34749	4.24169	4.1448	4.04395	3.9573	3.89438	3.86898	3.86336	3.86466	3.89285	3.86669	3.82235	3.84471	3.88905	3.96744	4.06072	4.17859	4.33006	4.47846	4.5659	4.62776	4.68825	4.76038	4.83099	4.91344	5.00866	5.1056	5.17529	5.25373	5.3884	5.58314	5.81189	6.05093	6.33906	6.65312	7.03782	7.50831	8.09517	8.74401	9.50476	10.5102	11.7123	13.2884	14.9079	17.7386	21.9141	27.9199	32.8376	38.8114	45.4716	51.8649	54.7326	51.9642	44.1573	35.3202	28.0302	23.9083	20.3668	17.5435	14.3574	11.7791	11.1488	10.5742	9.66163	8.5032	7.73234	7.18386	6.58132	6.09122	5.71135	5.39188	5.15137	4.98691	4.858	4.76577	4.68937	4.66436	4.65167	4.65707	4.67163	4.61865	4.57584	4.53548	4.50006	4.46563	4.44037	4.41531	4.3945	4.37791	4.36166	4.32102	4.27184	4.24542	4.19836	4.18862	4.17222	4.15623	4.14544	4.13443	4.11699	4.09166	4.04887	4.02718	4.00025	3.97979	3.95147	3.9292	3.91063	3.85436	3.85373	3.85445	3.88301	3.89694	3.90897	3.95262	3.94615	3.94184	3.91111	3.90363	3.89635	3.89927	3.89764	3.87685	3.86485	3.67029	3.64647	3.61358	3.65406	3.70228	3.7509	3.79664	3.77954	3.75726	3.74298	3.68484	3.62282	3.56067	3.49745	3.44724	3.39539	3.30067	3.30942	3.32183	3.41868	3.4961	3.57575	3.64191	3.73561	3.82529	3.81651	3.81135	3.8071	3.80244	3.80644	3.83318	3.8156	3.79588	3.77595	3.75273	3.73026	3.70351	3.6796	3.63479	3.57832	3.52556	3.47738	3.40732	3.38785	3.38397	3.37782	3.37919	3.38783	3.3738	3.35678	3.32862	3.30447	3.27254	3.32261	3.35186	3.40674	3.48628	3.52515	3.5609	3.58357	3.58289	3.58336	3.48661	3.47753	3.47221	3.46766	3.46714	3.46894	3.47009	3.49619	3.50341	3.51823	3.52658	3.55281	3.56579	3.57939	3.58997	3.6012	3.61216	3.62089	3.63056	3.62998	3.63898	3.64254	3.67217	3.69894	3.7327	3.7132	3.68491	3.65775	3.63166	3.60839	3.59408	3.59163	3.60933	3.62554	3.64298	3.66022	3.64169	3.56773	3.51424	3.45402	3.44061	3.4342	3.45848	3.48376	3.5231	3.56006	3.60246	3.63476	3.67982	3.71803	3.74494	3.75379	3.76299	3.77685	3.7623	3.75451	3.73606	3.71854	3.70188	3.40286	3.19799	3.09796	3.20917	3.32159	3.4207	3.47977	3.37303	3.41094	3.45138	3.49148	3.53262	3.57829	3.59317	3.58785	3.58067	3.57229	3.56379	3.5435	3.50697	3.47868	3.4273	3.40877	3.40101	3.39561	3.39364	3.3972	3.42223	3.44301	3.46553	3.49559	3.50276	3.51448	3.52012	3.52645	3.53155	3.53461	3.53855	3.53443	3.50762	3.49829	3.49338	3.4937	3.50364	3.54936	3.58362	3.63354	3.66082	3.69283	3.71442	3.7194	3.73476	3.75204	3.77115	3.77764	3.77995	3.78552	3.7736	3.7789	3.77479	3.77182	3.77047	3.76912	3.79737	3.78409	3.77046	3.74364	3.71316	3.66916	3.58104	3.50205	3.41309	3.329	3.24435	3.15988	3.08151	3.0055	2.94963	3.04671	3.11961	3.20665	3.30432	3.40579	3.51228	3.65457	3.71552	3.76758	3.79564	3.75492	3.72008	3.67636	3.63272	3.58914	3.54396	3.49794	3.454	3.41864	3.38239	3.35699	3.39106	3.42528	3.45795	3.50064	3.54525	3.58885	3.6332	3.65748	3.70214	3.7418	3.73541	3.70699	3.66096	3.54274	3.51629	3.49264	3.47336	3.46087	3.44787	3.48168	3.49295	3.50815	3.52643	3.53359	3.55042	3.56023	3.56985	3.58063	3.58659	3.59351	3.59593	3.60172	3.58913	3.58743	3.57266	3.55603	3.54127	3.53211	3.51979	3.52656	3.5243	3.52571	3.53512	3.55081	3.56864	3.58611	3.60621	3.61161	3.60454	3.60695	3.6086	3.61092	3.61333	3.61748	3.61851	3.62158	3.62165	3.62487	3.62557	3.62951	3.63167	3.6353	3.64499	3.65119	3.64974	3.65948	3.66454	3.65615	3.63541	3.60723	3.5821	3.55444	3.53934	3.50527	3.47068	3.43275	3.36414	3.32178	3.28633	3.2591	3.21323	3.19115	3.18372	3.18546	3.19124	3.26386	3.29209	3.35389	3.42425	3.47254	3.45194	3.44837	2.85858	3.27289	3.23348	3.22651	3.25602	3.30667	3.37545	3.4686	3.58629	3.68952	3.76399	3.81309	3.87418	3.91757	3.92864	3.88725	3.83555	3.77825	3.70503	3.62014	3.5397	3.45479	3.37336	3.29216	3.2111	3.15965	3.10909	3.01516	3.31225	3.31772	3.29285	3.27874	3.26041	3.23972	3.25249	3.29752	3.35272	3.39651	3.43734	3.48535	3.53058	3.57496	3.57147	3.56646	3.55784	3.54864	3.54184	3.53091	3.51974	3.49495	3.51115	3.52026	3.54503	3.56194	3.59135	3.61048	3.63121	3.63944	3.67228	3.6964	3.71298	3.73053	3.73793	3.74687	3.73985	3.72098	3.60043	3.58789	3.57656	3.53987	3.51394	3.49147	3.49852	3.49554	3.44872	3.40541	3.38069	3.38544	3.38426	3.38539	3.38844	3.40826	3.42657	3.44678	3.50634	3.55308	3.60515	3.65211	3.69659	3.75829	3.80894	3.85897	3.87153	3.87531	3.86644	3.85033	3.8343	3.81752	3.77079	3.72118	3.66674	3.60824	3.55102	3.48743	3.43165	3.37209	3.34479	3.35871	3.40179	3.42785	3.41796	3.38162	3.36826	3.36342	3.41493	3.48017	3.50825	3.52672	3.51513	3.50264	3.48955	3.47124	3.45977	3.44838	3.44652	3.44701	3.46302	3.5147	3.55493	3.57572	3.60824	3.63409	3.57602	3.47946	3.36473	3.25775
20	0	2.99928	3.43062	3.88467	4.05378	4.06064	4.04688	4.02107	3.99216	3.95772	3.74225	3.81256	3.87845	3.94406	3.99481	4.00111	3.95325	3.90317	3.87134	3.8424	3.82609	3.82784	3.77753	3.72947	3.68122	3.6356	3.6505	3.66358	3.68648	3.70908	3.73352	3.76063	3.78995	3.81869	3.84864	3.87499	3.9133	3.92611	3.93334	3.92919	3.93107	3.85819	3.733	3.62766	3.48059	3.50458	3.57804	3.66489	3.71142	3.81808	3.85635	3.89115	3.86293	3.89038	3.93858	3.97844	4.02395	4.06639	4.12321	4.13755	4.14549	4.0922	4.05888	4.02525	3.98624	3.95333	3.896	3.91921	3.91415	3.93912	3.95407	3.96227	3.9737	3.96071	3.93416	3.91281	3.87946	3.85396	3.82017	3.78264	3.73982	3.68249	3.66519	3.64048	3.68275	3.71261	3.74487	3.78687	3.83276	3.88559	3.93824	3.97676	3.97517	3.97156	3.9684	3.95942	3.96246	3.95279	3.94628	3.93653	3.92434	3.91398	3.8934	3.86437	3.8312	3.81074	3.77703	3.75593	3.73413	3.70822	3.69516	3.67832	3.74197	3.76628	3.79317	3.82626	3.85678	3.90077	3.91454	3.90054	3.86335	3.82902	3.75285	3.63376	3.54217	3.44889	3.38488	3.43175	3.52366	3.61213	3.65306	3.70667	3.74587	3.8061	3.88039	3.93539	3.94411	3.95174	3.96815	3.98311	4.00066	3.97319	3.95006	3.92983	3.91127	3.90131	3.91179	3.91575	3.92459	3.91832	3.90038	3.88412	3.86578	3.86392	3.89408	3.907	3.94064	3.97431	3.97756	3.97449	3.97498	3.9697	3.94255	3.8725	3.81172	3.77331	3.74553	3.73717	3.74042	3.75704	3.85296	3.84044	3.83254	3.80783	3.7743	3.7394	3.702	3.59825	3.58461	3.57862	3.5782	3.58082	3.58474	3.67531	3.721	3.7726	3.81329	3.86086	3.89876	3.93779	3.92452	3.92621	3.92581	3.92099	3.91657	3.91194	3.90651	3.9021	3.86157	3.81425	3.77649	3.74718	3.72262	3.70192	3.7007	3.73629	3.70798	3.67459	3.64549	3.60043	3.62414	3.64957	3.77621	3.87998	3.97404	3.95746	3.96283	3.96061	3.95765	3.94721	3.96203	3.9847	3.93074	3.86532	3.81228	3.75079	3.70169	3.6549	3.59589	3.59445	3.64424	3.69095	3.73972	3.79533	3.83937	3.89591	3.9471	3.99702	4.03553	4.06463	4.05726	4.04973	4.0463	4.0421	4.03947	4.03688	4.0293	4.00716	3.98603	3.96469	3.94553	3.92696	3.90821	3.88489	3.86667	3.83736	3.80741	3.78015	3.76595	3.74087	3.72722	3.70525	3.69679	3.67917	3.67959	3.67084	3.70082	3.71637	3.74873	3.77019	3.79913	3.83319	3.8605	3.88322	3.86551	3.87383	3.88286	3.8943	3.90403	3.91404	3.9738	3.98115	3.98846	3.99909	4.01464	3.93594	3.8805	4.03011	4.05186	4.06646	4.08053	3.47059	3.68988	3.96932	4.13866	4.14819	3.80348	3.87294	4.01304	4.09213	4.13625	4.1367	4.13243	4.12416	4.11872	4.11086	4.10452	4.09629	4.08825	4.07966	4.06972	4.05765	4.04717	4.02824	4.02022	4.00792	4.00118	3.98645	3.98802	3.98797	3.99416	4.00207	4.02158	4.03706	4.0515	4.0748	4.10043	4.11541	4.12223	4.12875	4.1337	4.1382	4.1376	4.12217	4.08582	4.07646	4.06104	4.05137	4.03862	4.02929	4.02134	3.96793	3.9356	3.90783	3.87683	3.85213	3.84161	3.83635	3.83314	3.83699	3.90767	3.86876	3.82205	3.78067	3.70102	3.65154	3.63672	3.67858	3.73534	3.79606	3.88648	3.99548	4.07437	4.18066	4.22661	4.23857	4.25038	4.18635	4.13866	4.09177	4.01369	3.975	3.93324	3.90065	3.87836	3.91115	3.9225	3.93088	3.93511	3.93771	3.93939	3.94263	3.94068	3.94054	3.93509	3.93099	3.89077	3.89673	3.90218	3.89448	3.90454	3.91722	3.929	3.94397	3.94863	3.98642	3.99247	4.00409	4.01238	4.02277	4.03271	4.04222	4.04681	4.06633	4.06414	4.0584	4.05949	4.04088	4.02592	4.02328	4.01724	4.01595	4.00921	4.00699	3.98009	3.95043	3.91796	3.87762	3.86448	3.85832	3.85923	3.89042	3.96626	4.04501	4.13667	4.14692	4.16299	4.16712	4.17302	4.18219	4.1856	4.14009	4.11217	4.08236	4.06205	4.0284	4.01528	4.01762	4.0108	4.00085	3.9985	3.99642	3.98347	3.98555	3.97367	3.96346	3.95501	3.94942	3.94637	3.94209	3.93939	3.93812	3.93577	3.93779	3.93714	3.94289	3.94616	3.95229	3.9625	3.97392	3.99402	4.01362	4.03744	4.06181	4.08972	4.11653	4.15319	4.16335	4.17096	4.20566	4.25021	4.29785	4.31942	4.34638	4.37337	4.40435	4.43971	4.44168	4.49589	4.55965	4.6267	4.70308	4.80216	4.98516	5.19199	5.40792	5.625	5.81082	6.09052	6.41378	6.75499	7.15495	7.72696	8.36143	9.37588	10.3582	11.8266	13.4792	16.3178	18.9189	22.2634	25.2442	28.1399	30.7795	33.5679	32.7604	25.1805	21.2643	17.978	15.0949	12.8043	11.1617	9.73188	8.73291	7.99025	7.53631	7.08891	6.57144	6.13433	5.93843	5.76431	5.59741	5.45899	5.32607	5.19063	5.11248	5.04546	4.98609	4.93542	4.87433	4.81613	4.7629	4.66414	4.57257	4.48302	4.41317	4.35564	4.30349	4.25663	4.21701	4.17967	4.14574	4.1147	4.087	4.03693	3.9792	3.92643	3.89568	3.86471	3.87063	3.8794	3.88649	3.89687	3.92939	3.92194	3.91616	3.91317	3.90323	3.89108	3.87457	3.83856	3.80859	3.78331	3.75237	3.7225	3.68773	3.65102	3.65438	3.64587	3.67083	3.69941	3.72526	3.7519	3.75188	3.78984	3.78315	3.78003	3.78215	3.8175	3.82327	3.84799	3.89104	3.93042	3.9633	4.00617	4.03895	4.07716	4.1049	4.13873	4.1292	4.13086	4.14451	4.14218	4.12263	4.09842	4.07634	4.04684	4.02153	3.9913	3.96649	3.93633	3.90795	3.87627	3.84604	3.8027	3.73656	3.67365	3.32703	3.14919	3.05274	3.09205	3.19586	3.34777	3.70553	3.9088	3.98647	3.97367	3.95608	3.93548	3.86401	3.79667	3.73096	3.65822	3.62011	3.5727	3.57652	3.58845	3.60433	3.63261	3.7124	3.73676	3.76637	3.7873	3.8127	3.82763	3.84831	3.8586	3.83565	3.81354	3.79799	3.77125	3.75403	3.7402	3.73262	3.72425	3.72429	3.721	3.74658	3.75161	3.75214	3.74428	3.71691	3.72106	3.72475	3.73159	3.7402	3.74953	3.76239	3.81298	3.81906	3.81287	3.81742	3.82162	3.82528	3.83007	3.83242	3.85685	3.85262	3.84751	3.80717	3.75379	3.70259	3.65891	3.61807	3.58956	3.6263	3.65765	3.68144	3.70466	3.678	3.6585	3.63642	3.64549	3.64989	3.64318	3.65871	3.6641	3.68767	3.68454	3.68367	3.66913	3.65796	3.64497	3.65532	3.67225	3.65536	3.64596	3.67184	3.69796	3.72781	3.75835	3.7905	3.85401	3.86454	3.87572	3.8554	3.83772	3.81385	3.77789	3.6881	3.66928	3.6333	3.58855	3.5598	3.5699	3.59188	3.59383	3.55239	3.50748	3.46989	3.46436	3.47139	3.46555	3.53187	3.59333	3.64758	3.68678	3.7283	3.75848	3.81019	3.82958	3.83475	3.85003	3.86129	3.84603	3.83393	3.83631	3.8441	3.85158	3.86503	3.87317	3.89228	3.88131	3.85042	3.82951	3.81807	3.80207	3.79049	3.77514	3.81753	3.82491	3.82891	3.81356	3.79274	3.75503	3.73101	3.69122	3.64496	3.61715	3.58483	3.57612	3.56554	3.55959	3.5395	3.50687	3.48159	3.46137	3.44758	3.44263	3.48181	3.4833	3.49907	3.51785	3.534	3.54807	3.56722	3.58078	3.60098	3.6144	3.64978	3.65848	3.65717	3.68292	3.69877	3.70879	3.63533	3.60433	3.58599	3.56146	3.53839	3.50592	3.49332	3.52667	3.58397	3.62426	3.67511	3.67014	3.65356	3.63806	3.6222	3.62023	3.65918	3.69544	3.73601	3.77662	3.82475	3.87504	3.9177	3.96102	3.9975	4.03121	4.06208	4.07747	4.07709	4.02418	3.96108	3.88191	3.72408	3.61123	3.51227	3.51837	3.50412	3.49962	3.59312	3.5554	3.57696	3.59247	3.62464	3.65663	3.69499	3.72475	3.75814	3.74691	3.72441	3.70126	3.6849	3.67753	3.66433	3.65662	3.6492	3.66048	3.66463	3.67067	3.67898	3.6909	3.70568	3.71936	3.7222	3.73965	3.75592	3.77709	3.79789	3.81664	3.82353	3.83073	3.83698	3.84374	3.84943	3.85448	3.85816	3.8632	3.86573	3.86093	3.85531	3.84758	3.83994	3.83224	3.82253	3.81396	3.80065	3.79222	3.78977	3.77022	3.74926	3.71797	3.70042	3.68376	3.66282	3.63503	3.62094	3.60051	3.58639	3.57755	3.565	3.54969	3.57353	3.62954	3.69198	3.74502	3.76992	3.81084	3.84947	3.87455	3.87502	3.87919	3.88933	3.9171	3.94389	3.96023	3.93152	3.87828	3.8216	3.76072	3.7111	3.67023	3.63766	3.60131	3.57184	3.55162	3.56609	3.57545	3.6192	3.64206	3.66729	3.69858	3.72958	3.75873	3.78787	3.81266	3.84115	3.86199	3.88708	3.90454	3.92138	3.92425	3.94011	3.94056	3.94616	3.93865	3.9235	3.91008	3.89384	3.87353	3.85199	3.83127	3.80569	3.78367	3.76217	3.73165	3.70067	3.67432	3.64855	3.63846	3.62864	3.62151	3.61783	3.61217	3.61283	3.60875	3.59701	3.60304	3.59339	3.59341	3.59135	3.6038	3.60458	3.60233	3.60662	3.60787	3.61235	3.62242	3.63435	3.64857	3.66771	3.68574	3.70968	3.7311	3.75807	3.76968	3.7737	3.77607	3.75321	3.72241	3.69577	3.66947	3.64657	3.62261	3.58672	3.57712	3.56531	3.56013	3.55444	3.55398	3.57181	3.61963	3.64837	3.66393	3.68278	3.70202	3.72941	3.73778	3.74435	3.74867	3.75179	3.75256	3.73336	3.67534	3.59178	3.4953	3.41171	3.34945	3.44925	3.50322	3.55001	3.59779	3.64382	3.69546	3.69863	3.71131	3.69991	3.68305	3.60004	3.54038	3.48536	3.4307	3.5758	3.59519	3.61602	3.63535	3.65614	3.61454	3.5733	3.5137	3.49185	3.41197
20	20	3.12778	3.43182	3.58574	3.71209	3.77581	3.82421	3.8466	3.81645	3.80902	3.81957	3.80217	3.78558	3.7479	3.67743	3.6293	3.5743	3.52286	3.46278	3.44355	3.38943	3.37653	3.34852	3.36748	3.38848	3.4782	3.53243	3.54281	3.55515	3.59802	3.6002	3.64003	3.65207	3.69527	3.84574	3.8777	3.86355	3.82408	3.79203	3.7707	3.74281	3.71905	3.63152	3.52988	3.4056	3.35564	3.35133	3.4493	3.44955	3.4756	3.49312	3.51266	3.53997	3.56539	3.60748	3.60998	3.63944	3.65118	3.6314	3.55527	3.52506	3.50626	3.49916	3.51226	3.54242	3.63116	3.65005	3.67989	3.71169	3.74606	3.77146	3.78133	3.80289	3.80187	3.82694	3.77913	3.75945	3.72965	3.70515	3.69858	3.70253	3.70177	3.68381	3.65606	3.65575	3.6572	3.65168	3.65283	3.64159	3.60041	3.59683	3.60259	3.61451	3.63108	3.63216	3.63788	3.62873	3.62171	3.64763	3.70289	3.75124	3.80319	3.88611	3.98909	4.05673	4.05365	4.0457	4.01748	3.97841	3.91475	3.84554	3.7753	3.70189	3.64338	3.58862	3.54583	3.50848	3.47621	3.45724	3.43778	3.33201	3.17819	3.0413	2.97078	3.0435	3.06205	3.21095	3.30529	3.37419	3.45617	3.50218	3.54916	3.6032	3.63682	3.6526	3.63306	3.60729	3.56383	3.5483	3.53379	3.54297	3.542	3.56134	3.57349	3.58295	3.59995	3.62429	3.60854	3.62633	3.61804	3.61982	3.61991	3.60866	3.60976	3.6354	3.64316	3.66559	3.67587	3.71285	3.75451	3.80159	3.84047	3.87971	3.86805	3.83191	3.80961	3.77118	3.75518	3.74642	3.55667	3.47561	3.43645	3.4228	3.44949	3.47776	3.46778	3.51632	3.60804	3.73097	3.82773	3.83873	3.83983	3.8478	3.85629	3.88004	3.90218	3.91737	3.91079	3.90324	3.86976	3.85235	3.82215	3.81376	3.79665	3.77154	3.75197	3.74268	3.71537	3.68807	3.63364	3.61357	3.61574	3.65228	3.68922	3.71155	3.70846	3.72181	3.73395	3.78017	3.7345	3.75605	3.71985	3.65174	3.59008	3.45874	3.33657	3.30133	3.25866	3.28529	3.28215	3.38111	3.58662	3.70884	3.77378	3.81943	3.87787	3.91086	3.9082	3.86078	3.78912	3.69173	3.60922	3.45822	3.3711	3.28552	3.20236	3.25608	3.22567	3.21165	3.19337	3.1846	3.27294	3.33456	3.37895	3.42892	3.50967	3.5735	3.5981	3.59404	3.5775	3.62357	3.68978	3.72475	3.77667	3.82243	3.85011	3.87185	3.85455	3.79982	3.74377	3.66635	3.59372	3.54903	3.5527	3.57588	3.6238	3.63274	3.70929	3.81313	3.85189	3.85114	3.84366	3.82188	3.78777	3.76175	3.73617	3.69133	3.63878	3.58709	3.53378	3.50168	3.48752	3.50594	3.53544	3.57817	3.64067	3.66313	3.68837	3.71247	3.73866	3.76194	3.74113	3.71693	3.66417	3.62493	3.64818	3.6462	3.66087	3.69079	3.72453	3.767	3.78692	3.80923	3.77014	3.70415	3.58952	3.5876	3.53848	3.56499	3.58587	3.62218	3.65321	3.69177	3.74241	3.78084	3.82308	3.85933	3.81491	3.79262	3.70362	3.68592	3.65623	3.60097	3.57607	3.52546	3.49508	3.50473	3.52471	3.53796	3.58836	3.59107	3.56194	3.53178	3.51282	3.49285	3.4633	3.46046	3.43928	3.47071	3.49708	3.53163	3.56273	3.6175	3.61238	3.61513	3.6847	3.77575	3.87324	3.91221	3.91316	3.93037	3.97737	3.98072	3.98754	3.97768	3.9476	3.93663	3.9119	3.898	3.84823	3.79583	3.75496	3.71065	3.69826	3.70064	3.71657	3.71905	3.6966	3.65807	3.60159	3.56685	3.55493	3.5642	3.59507	3.6551	3.69084	3.71976	3.74252	3.77879	3.75119	3.68901	3.6603	3.65587	3.6591	3.65647	3.69597	3.7219	3.75344	3.79538	3.81815	3.86545	3.90725	3.902	3.86055	3.83677	3.84409	3.85476	3.83954	3.82724	3.79238	3.76872	3.76731	3.79049	3.80965	3.82032	3.8368	3.88345	3.9029	3.89255	3.81465	3.74772	3.66292	3.57109	3.50178	3.45745	3.39185	3.33148	3.32047	3.33526	3.34797	3.36904	3.40577	3.42841	3.43145	3.40816	3.36308	3.31322	3.29896	3.30784	3.33998	3.38147	3.41755	3.48439	3.55622	3.63158	3.70694	3.71745	3.70287	3.66112	3.64676	3.65251	3.66327	3.65575	3.6461	3.6505	3.6664	3.69653	3.71224	3.73762	3.75266	3.76127	3.78592	3.80422	3.8184	3.83334	3.8179	3.79067	3.75856	3.74304	3.72648	3.72566	3.72389	3.69972	3.69423	3.70319	3.74517	3.83707	3.86759	3.88171	3.88906	3.84507	3.78065	3.74737	3.71575	3.67866	3.67498	3.65757	3.69245	3.80742	3.93628	4.04216	4.15942	4.23719	4.35754	4.52296	4.66312	4.72861	4.7904	4.88653	4.99695	5.10428	5.49434	5.78604	5.70817	6.18375	6.48914	7.16017	8.15809	9.60621	11.2318	13.1978	15.1541	17.1104	18.3996	18.7907	18.035	16.8325	15.7604	14.2762	12.7353	11.2425	9.68028	8.19531	7.24219	6.5755	6.06682	5.74465	5.53072	5.23249	5.01569	4.88052	4.75377	4.61841	4.54618	4.48351	4.38318	4.25104	4.20771	4.09505	4.04278	3.99883	4.02135	4.05718	4.07028	4.07764	4.095	4.12777	4.22266	4.25251	4.27942	4.32442	4.34791	4.36857	4.38078	4.357	4.22705	4.0794	3.99274	3.92027	3.8503	3.88204	3.95756	3.92797	3.88142	3.89509	3.80188	3.66176	3.56704	3.50176	3.48203	3.48041	3.52704	3.52232	3.51863	3.53368	3.5597	3.6259	3.5993	3.5487	3.53619	3.49588	3.47834	3.44135	3.42464	3.43577	3.40887	3.44317	3.49785	3.54655	3.52856	3.46274	3.46317	3.50843	3.58197	3.61921	3.63864	3.63868	3.65007	3.65483	3.63839	3.60291	3.52701	3.48361	3.4852	3.51131	3.53869	3.55986	3.60519	3.6443	3.69919	3.67982	3.69099	3.65212	3.64393	3.63078	3.6077	3.64974	3.70166	3.81303	3.85847	3.87235	3.85217	3.81507	3.71413	3.64474	3.57858	3.53583	3.49961	3.42596	3.38676	3.36216	3.33647	3.34377	3.36102	3.39275	3.4322	3.52372	3.53717	3.43296	3.41282	3.42959	3.44698	3.4648	3.53289	3.49799	3.45151	3.33205	3.22814	3.19054	3.20477	3.22188	3.23003	3.27485	3.31894	3.32989	3.35081	3.37587	3.40837	3.23786	3.25568	3.33416	3.45769	3.47622	3.46632	3.40342	3.35205	3.34985	3.32053	3.2784	3.24108	3.21368	3.21406	3.22127	3.22971	3.24959	3.34709	3.43958	3.47585	3.51436	3.54593	3.55695	3.54747	3.54961	3.57641	3.58969	3.59773	3.58653	3.53574	3.4995	3.45434	3.43813	3.44772	3.50809	3.48963	3.48042	3.47801	3.46842	3.46456	3.48	3.48386	3.49149	3.527	3.51397	3.5248	3.56478	3.5945	3.64062	3.66158	3.68958	3.6698	3.64721	3.5873	3.54632	3.56879	3.56542	3.55102	3.54131	3.52354	3.47416	3.37587	3.36343	3.337	3.32673	3.33658	3.35281	3.38865	3.42525	3.48938	3.54434	3.58429	3.60091	3.60588	3.60205	3.59062	3.5978	3.61693	3.62233	3.57718	3.51671	3.44484	3.40001	3.36027	3.36951	3.38699	3.43481	3.51166	3.57779	3.59384	3.59315	3.57331	3.58096	3.58562	3.53292	3.47951	3.43754	3.39929	3.35625	3.33037	3.32486	3.34146	3.35315	3.33876	3.40942	3.43616	3.45325	3.46257	3.47927	3.51413	3.54711	3.55712	3.61056	3.59563	3.55653	3.53912	3.552	3.57383	3.59423	3.6351	3.70248	3.74043	3.77977	3.81607	3.86308	3.85021	3.86507	3.86413	3.88186	3.8454	3.76704	3.71149	3.6658	3.62039	3.58561	3.39054	3.11032	2.09362	3.59761	3.60269	3.45762	3.31468	3.47478	3.51797	3.55016	3.57578	3.60692	3.62693	3.70957	3.71606	3.67206	3.61951	3.44187	3.3816	3.24403	3.20726	3.17625	3.20331	3.21799	3.16272	3.20627	3.32582	3.40533	3.4645	3.47187	3.47489	3.49334	3.49877	3.52912	3.54168	3.39464	3.14596	3.1942	3.48336	3.54297	3.56446	3.58973	3.57975	3.57625	3.59498	3.61305	3.61783	3.61639	3.59156	3.59281	3.57594	3.57957	3.5485	3.5463	3.53898	3.56944	3.5806	3.58287	3.60146	3.62605	3.63744	3.64509	3.64376	3.63391	3.59886	3.53771	3.47715	3.42631	3.38618	3.44651	3.43013	3.42383	3.42093	3.41068	3.41712	3.44186	3.46877	3.49042	3.55122	3.58815	3.59556	3.60013	3.58365	3.55403	3.53224	3.54937	3.56029	3.48476	3.41703	3.35087	3.30177	3.28118	3.27067	3.27967	3.33262	3.344	3.38344	3.42206	3.44554	3.48857	3.55286	3.61137	3.67131	3.69384	3.72666	3.71946	3.68229	3.64679	3.61044	3.59271	3.59288	3.58933	3.61077	3.59375	3.54351	3.50847	3.47702	3.42315	3.38282	3.24608	3.23089	3.23891	3.26535	3.34431	3.40403	3.45445	3.4765	3.49193	3.48709	3.47709	3.43912	3.41573	3.4022	3.36119	3.34209	3.29982	3.27679	3.29977	3.35408	3.35403	3.35281	3.30531	3.32069	3.36517	3.35777	3.38636	3.39732	3.3327	3.3244	3.39773	3.46193	3.5189	3.5729	3.57105	3.53718	3.50073	3.43944	3.3905	3.32883	3.24301	3.19643	3.18003	3.18816	3.17965	3.23151	3.27106	3.30662	3.34278	3.36431	3.37354	3.35115	3.36145	3.38579	3.37413	3.38497	3.42372	3.46111	3.49544	3.53461	3.58258	3.63916	3.73566	3.76914	3.80785	3.86634	3.87675	3.89489	3.9029	3.85245	3.73017	3.62076	3.52638	3.38507	3.26217	3.21553	3.19261	3.19717	3.22342	3.32346	3.34717	3.36769	3.40997	3.45964	3.53258	3.56789	3.59988	3.63061	3.67374	3.67982	3.68599	3.67426	3.6334	3.57628	3.5395	3.5225	3.4846	3.45016	3.45508	3.47461	3.46134	3.52427	3.5576	3.57546	3.59193	3.59428	3.60019	3.60369	3.63418	3.64416	3.64954	3.6666	3.6783	3.71433	3.76353	3.80629	3.82762	3.85968	3.89781	3.93002	3.95237	3.95059	3.90931
