Acq. time (s)=	4
Accumulations=	3
Range=	Off
Autofocus=	At all XY pixels
SWIFT=	Off
AutoExposure=	Off
Spike filter=	Multiple accum.
Delay time (s)=	0
Binning=	1
Readout mode=	Signal
DeNoise=	Standard
ICS correction=	On
Dark correction=	Off
Inst. Process=	Off
Instrument=	LabRAM S3000
Detector=	Synapse
Objective=	x100
Grating=	1800
ND Filter=	25%
Laser (nm)=	632.81 
Spectro (cm-¹)=	521.228
Slit=	100.021
Hole=	199.981
Microscope=	Principal
StageXY=	Märzhauser
StageZ=	Märzhauser
Z (µm)=	-676.9
Project=	
Sample=	
Site=	
Title=	SOP_200nm_furu_p0.35
Remark=	
Date=	14.06.2019 11:57
Operator=	
Acquired=	14.06.2019 11:57:08
		358.285	358.609	358.934	359.26	359.585	359.909	360.235	360.56	360.886	361.21	361.535	361.859	362.185	362.51	362.834	363.16	363.485	363.809	364.135	364.459	364.784	365.108	365.434	365.758	366.083	366.407	366.733	367.057	367.381	367.705	368.03	368.355	368.68	369.004	369.328	369.652	369.978	370.302	370.626	370.95	371.274	371.598	371.923	372.248	372.572	372.896	373.22	373.544	373.868	374.192	374.516	374.84	375.164	375.49	375.813	376.137	376.461	376.785	377.109	377.433	377.757	378.081	378.404	378.728	379.052	379.376	379.699	380.023	380.347	380.671	380.994	381.318	381.642	381.965	382.288	382.611	382.935	383.258	383.582	383.906	384.229	384.553	384.876	385.2	385.522	385.845	386.169	386.492	386.816	387.139	387.463	387.785	388.108	388.431	388.755	389.078	389.402	389.723	390.047	390.37	390.693	391.015	391.338	391.662	391.985	392.307	392.63	392.953	393.276	393.598	393.921	394.244	394.566	394.889	395.212	395.535	395.857	396.18	396.503	396.825	397.148	397.471	397.792	398.115	398.437	398.76	399.083	399.404	399.727	400.049	400.372	400.694	401.016	401.339	401.66	401.983	402.304	402.627	402.95	403.271	403.594	403.915	404.238	404.559	404.882	405.203	405.526	405.847	406.17	406.491	406.814	407.135	407.456	407.778	408.1	408.422	408.743	409.066	409.387	409.708	410.03	410.351	410.674	410.995	411.316	411.638	411.959	412.282	412.602	412.923	413.246	413.567	413.888	414.21	414.531	414.852	415.174	415.495	415.815	416.136	416.458	416.779	417.1	417.421	417.743	418.064	418.384	418.705	419.027	419.348	419.668	419.989	420.311	420.632	420.952	421.273	421.593	421.914	422.236	422.556	422.877	423.197	423.518	423.838	424.16	424.481	424.801	425.121	425.442	425.762	426.083	426.403	426.723	427.044	427.365	427.686	428.006	428.326	428.647	428.967	429.287	429.607	429.927	430.248	430.568	430.888	431.208	431.528	431.848	432.169	432.489	432.809	433.129	433.449	433.769	434.088	434.408	434.728	435.048	435.368	435.688	436.008	436.327	436.647	436.967	437.287	437.606	437.926	438.245	438.565	438.885	439.205	439.523	439.843	440.163	440.483	440.802	441.121	441.44	441.76	442.08	442.4	442.718	443.037	443.357	443.677	443.995	444.315	444.634	444.954	445.272	445.591	445.911	446.229	446.549	446.868	447.186	447.506	447.825	448.143	448.463	448.782	449.1	449.419	449.739	450.057	450.376	450.695	451.013	451.333	451.65	451.97	452.288	452.607	452.926	453.244	453.563	453.881	454.2	454.518	454.837	455.155	455.474	455.792	456.111	456.428	456.748	457.065	457.384	457.702	458.021	458.338	458.658	458.975	459.294	459.612	459.929	460.248	460.566	460.884	461.202	461.519	461.838	462.156	462.475	462.792	463.109	463.428	463.746	464.063	464.382	464.699	465.016	465.335	465.652	465.97	466.288	466.606	466.923	467.242	467.559	467.876	468.193	468.512	468.829	469.146	469.463	469.782	470.099	470.416	470.733	471.05	471.369	471.686	472.003	472.32	472.637	472.954	473.272	473.589	473.906	474.223	474.54	474.857	475.174	475.492	475.809	476.126	476.442	476.759	477.076	477.393	477.71	478.026	478.343	478.66	478.977	479.293	479.61	479.928	480.245	480.562	480.878	481.195	481.512	481.828	482.145	482.461	482.777	483.093	483.41	483.726	484.043	484.359	484.676	484.992	485.309	485.625	485.942	486.258	486.575	486.889	487.206	487.522	487.839	488.155	488.471	488.788	489.104	489.419	489.735	490.051	490.368	490.684	490.999	491.315	491.631	491.947	492.264	492.578	492.895	493.211	493.527	493.842	494.158	494.474	494.79	495.104	495.421	495.737	496.051	496.367	496.683	496.998	497.314	497.63	497.944	498.26	498.576	498.891	499.206	499.522	499.837	500.153	500.469	500.783	501.099	501.413	501.729	502.043	502.359	502.675	502.989	503.305	503.619	503.935	504.249	504.565	504.879	505.195	505.509	505.825	506.139	506.454	506.769	507.084	507.398	507.714	508.028	508.343	508.658	508.973	509.287	509.601	509.917	510.231	510.546	510.86	511.174	511.489	511.803	512.119	512.433	512.747	513.062	513.376	513.69	514.005	514.319	514.633	514.948	515.262	515.576	515.891	516.204	516.518	516.832	517.147	517.461	517.775	518.088	518.403	518.717	519.031	519.344	519.659	519.973	520.287	520.6	520.914	521.229	521.542	521.856	522.169	522.483	522.797	523.111	523.425	523.738	524.052	524.365	524.679	524.992	525.305	525.62	525.934	526.247	526.56	526.874	527.187	527.5	527.814	528.127	528.44	528.753	529.067	529.38	529.693	530.006	530.32	530.633	530.946	531.259	531.572	531.885	532.198	532.512	532.825	533.138	533.451	533.764	534.077	534.39	534.702	535.015	535.328	535.641	535.953	536.266	536.579	536.892	537.204	537.517	537.83	538.142	538.455	538.768	539.08	539.392	539.705	540.018	540.331	540.642	540.955	541.268	541.58	541.893	542.204	542.517	542.83	543.141	543.454	543.766	544.079	544.39	544.703	545.015	545.327	545.639	545.952	546.263	546.575	546.888	547.199	547.511	547.824	548.135	548.447	548.76	549.071	549.383	549.694	550.007	550.319	550.63	550.942	551.253	551.565	551.876	552.189	552.5	552.812	553.123	553.435	553.746	554.058	554.369	554.681	554.992	555.304	555.615	555.927	556.237	556.55	556.86	557.172	557.483	557.795	558.106	558.416	558.728	559.039	559.351	559.662	559.972	560.284	560.595	560.905	561.217	561.528	561.838	562.15	562.46	562.771	563.083	563.393	563.704	564.015	564.326	564.636	564.947	565.258	565.569	565.879	566.189	566.501	566.811	567.122	567.432	567.743	568.054	568.364	568.674	568.984	569.296	569.606	569.916	570.226	570.536	570.847	571.158	571.468	571.778	572.088	572.398	572.708	573.018	573.329	573.639	573.95	574.26	574.57	574.88	575.19	575.5	575.81	576.12	576.429	576.739	577.049	577.359	577.669	577.979	578.289	578.598	578.908	579.218	579.528	579.837	580.147	580.457	580.767	581.076	581.386	581.694	582.004	582.314	582.623	582.933	583.242	583.552	583.862	584.171	584.479	584.789	585.098	585.408	585.718	586.027	586.335	586.645	586.954	587.263	587.573	587.881	588.19	588.5	588.809	589.119	589.426	589.736	590.045	590.354	590.662	590.972	591.281	591.589	591.898	592.207	592.515	592.824	593.134	593.441	593.751	594.06	594.367	594.677	594.986	595.294	595.603	595.912	596.219	596.528	596.836	597.145	597.454	597.762	598.071	598.378	598.687	598.995	599.304	599.611	599.92	600.228	600.537	600.846	601.153	601.462	601.77	602.077	602.386	602.693	603.002	603.309	603.618	603.926	604.234	604.542	604.85	605.158	605.465	605.774	606.081	606.39	606.697	607.004	607.313	607.62	607.927	608.236	608.543	608.85	609.159	609.466	609.773	610.081	610.389	610.696	611.004	611.311	611.618	611.925	612.234	612.541	612.848	613.155	613.463	613.77	614.077	614.384	614.691	614.999	615.306	615.613	615.92	616.227	616.535	616.842	617.149	617.456	617.762	618.069	618.376	618.684	618.991	619.298	619.604	619.911	620.218	620.524	620.831	621.138	621.444	621.751	622.058	622.366	622.672	622.979	623.286	623.592	623.899	624.205	624.512	624.818	625.125	625.431	625.738	626.044	626.349	626.656	626.962	627.269	627.575	627.881	628.188	628.494	628.8	629.107	629.413	629.719	630.024	630.331	630.637	630.943	631.25	631.556	631.861	632.167	632.473	632.779	633.085	633.392	633.696	634.003	634.309	634.615	634.919	635.226	635.532	635.838	636.142	636.448	636.754	637.06	637.365	637.671	637.977	638.282	638.588	638.894	639.198	639.504	639.81	640.114	640.42	640.726	641.031	641.337	641.642	641.947	642.253	642.557	642.863	643.169	643.473	643.779	644.083	644.389	644.693	644.999	645.305	645.609	645.914	646.219	646.524	646.829	647.134	647.438	647.744	648.048	648.354	648.658	648.962	649.268	649.572	649.877	650.181	650.487	650.791	651.095	651.4	651.704	652.01	652.314	652.618	652.923	653.227	653.533	653.836	654.14	654.446	654.75	655.054	655.357	655.663	655.967	656.27	656.576	656.879	657.183	657.488	657.792	658.096	658.4	658.705	659.009	659.312	659.616	659.92	660.225	660.529	660.832	661.136	661.44	661.745	662.048	662.352	662.655	662.959	663.263	663.566	663.871	664.175	664.478	664.782	665.085	665.389	665.692	665.996	666.299	666.602	666.906	667.209	667.514	667.817	668.121	668.424	668.728	669.031	669.334	669.638	669.941	670.244	670.547	670.851	671.154	671.456	671.759	672.062	672.365	672.669	672.972	673.275	673.578	673.881	674.184	674.487	674.791	675.092	675.395	675.698	676.002	676.305	676.608	676.911	677.212	677.515	677.818	678.121	678.424	678.726	679.029	679.332
-20	-20	4.23686	4.31193	4.21817	4.13736	3.83933	3.92985	3.9648	4.00096	4.03424	4.07278	4.11553	4.17124	4.18286	4.19413	4.20497	4.17789	4.15129	4.12257	4.09106	4.06768	4.04626	4.0234	3.99948	3.98796	3.9724	3.97081	3.97201	3.97706	3.99073	4.00745	4.0288	4.06231	4.08475	4.09268	4.07366	4.05339	4.03373	4.0166	3.99894	3.98638	3.96606	3.95697	3.93681	3.95133	3.99271	4.0334	4.07113	4.10632	4.14394	4.14783	4.14474	4.14316	4.16756	4.19313	4.18506	4.17538	4.16429	4.15201	4.13988	4.12702	4.11862	4.09107	4.07909	4.07375	4.07402	4.03743	3.9731	3.91456	3.85541	3.87318	3.85883	3.85467	3.85063	3.83162	3.80929	3.79099	3.76585	3.74603	3.73576	3.72828	3.72392	3.72044	3.74007	3.74717	3.76332	3.77359	3.77264	3.78669	3.80231	3.82875	3.83495	3.87456	3.91434	3.9491	3.95662	3.96376	3.97394	3.98178	3.9958	3.99849	4.00767	4.03339	4.04747	4.05718	4.06978	4.08176	4.08406	4.0876	4.09115	4.0701	4.02381	3.97757	3.93384	3.89478	3.84772	3.83642	3.81857	3.82341	3.83512	3.92417	3.98773	4.07612	4.12902	4.15389	4.20193	4.24778	4.28716	4.31387	4.33384	4.26448	4.15058	4.03607	3.9632	3.90132	3.85837	3.84688	3.84084	3.84592	3.84727	3.87645	3.90747	3.91817	3.93997	3.97519	4.05915	4.15877	4.29433	4.20551	4.09942	4.05891	4.0237	3.95287	3.85924	3.71813	3.63811	3.68703	3.7205	3.76425	3.80516	3.89833	3.94702	4.0168	4.03511	4.00035	3.94069	3.89415	3.86934	3.87155	3.93521	4.04853	4.01611	4.02454	4.01732	4.03797	4.0523	4.03331	4.00548	3.98005	3.95495	3.91398	3.87571	3.84909	3.85377	3.88455	3.90746	3.93519	3.96755	4.00506	4.05172	4.10185	4.15058	4.18341	4.14795	4.10832	4.04047	3.96248	3.89626	3.90002	3.89973	3.91447	3.94945	3.99019	4.11605	4.03834	3.96961	3.89501	3.9495	3.87267	3.97671	4.08936	4.18273	4.2431	4.30857	4.32545	4.31806	4.32283	4.29736	4.27219	4.2241	4.19487	4.1628	4.13467	4.1058	4.07523	4.05429	4.04137	4.03113	3.99469	3.9933	3.99548	3.99862	4.00586	4.01483	4.0236	4.08419	4.10293	4.12091	4.14193	4.16324	4.18216	4.19983	4.2217	4.23865	4.24527	4.2307	4.22605	4.20919	4.18993	4.18085	4.13316	4.13255	4.1369	4.14266	4.1863	4.21195	4.22878	4.24302	4.23743	4.23085	4.23575	4.23985	4.24545	4.25289	4.25037	4.22961	4.20826	4.18328	4.164	4.14273	4.12155	4.10485	4.08512	4.07192	4.0549	4.03066	4.02479	4.02192	4.01366	4.01378	4.01142	4.0244	4.03678	4.0101	3.99016	3.97499	3.98199	3.98261	4.00473	4.02841	4.04852	4.07481	4.09451	4.11383	4.10519	4.0396	3.96797	3.86158	3.79207	3.64759	3.51747	3.37488	3.23901	3.11679	3.18599	3.27056	3.34928	3.41468	3.49333	3.57048	3.64377	3.70301	3.75131	3.8227	3.8742	3.88978	3.90834	3.94314	3.94815	3.94202	3.93507	3.94018	3.99731	4.00487	4.00909	4.0182	4.02622	4.03016	4.01043	4.0107	3.99795	3.9892	3.97351	3.93397	3.89714	3.85346	3.8167	3.77866	3.73599	3.7694	3.80245	3.90388	3.96824	4.02281	4.06159	4.11279	4.10212	4.0659	4.01834	3.98634	3.95993	3.93377	3.90643	3.92116	3.90683	3.89488	3.88755	3.87294	3.87323	3.86656	3.84889	3.82973	3.79493	3.7353	3.68801	3.65711	3.63312	3.59831	3.67482	3.89163	3.93724	3.98585	4.02863	4.11761	4.1972	4.24977	4.26486	4.2692	4.23417	4.11917	4.03608	3.95129	4.04894	4.04675	3.98792	3.95636	3.92547	3.87733	3.8421	3.7909	3.74636	3.7845	3.78617	3.79738	3.8124	3.83417	3.8569	3.88009	3.90444	3.92643	3.95214	3.96271	3.96452	4.01298	4.05409	4.08468	4.12068	4.15266	4.18679	4.22126	4.25662	4.29295	4.3298	4.36874	4.46627	4.44264	4.38505	4.31474	4.24058	4.15894	4.09134	4.05407	4.04062	4.0418	4.02556	4.0398	4.06095	4.09176	4.12867	4.16905	4.21641	4.2669	4.31877	4.37338	4.4281	4.48705	4.52478	4.55226	4.58151	4.61662	4.63906	4.69258	4.74045	4.79245	4.82801	4.86617	4.90406	4.9457	4.98729	5.03439	5.08115	5.13927	5.19813	5.26553	5.35723	5.44254	5.53417	5.60708	5.66629	5.69285	5.70835	5.7186	5.7283	5.75881	5.81053	5.88358	5.98195	6.10517	6.26174	6.4115	6.66777	6.92802	7.11755	7.34721	7.62274	7.93406	8.28453	8.59404	8.99796	9.3909	9.82997	10.3613	11.181	12.0904	13.2349	14.4931	16.0339	17.879	20.0476	22.622	25.1383	28.5288	33.4192	41.5865	51.3017	64.5304	77.0283	99.0298	114.443	137.409	141.564	137.742	120.073	105.83	83.8744	67.6577	52.8858	47.5861	37.1189	31.8669	27.5047	23.8176	20.8065	18.6792	16.6296	14.8301	13.395	12.5556	11.343	10.4877	9.92181	9.00635	8.50101	8.09337	7.77789	7.53495	7.37265	7.29921	7.15806	6.9822	6.78246	6.58322	6.40623	6.21648	6.06436	5.91583	5.80106	5.69193	5.60351	5.52679	5.46033	5.39124	5.32573	5.29196	5.25953	5.23344	5.16343	5.10639	5.02403	4.92065	4.80783	4.7148	4.61043	4.51267	4.41948	4.36618	4.33247	4.29994	4.27148	4.24409	4.20133	4.20113	4.2018	4.2174	4.2363	4.26116	4.24933	4.22684	4.22132	4.2512	4.28189	4.30363	4.3169	4.31778	4.30163	4.27741	4.24003	4.19958	4.13719	4.13315	4.08143	4.04212	3.94348	3.85963	3.8667	3.87009	3.88534	3.94754	4.01473	4.08898	4.07848	3.97202	3.91845	3.85451	3.89048	3.96054	3.97187	3.97334	3.9779	3.98713	4.00314	4.00493	4.01204	4.02782	4.02	4.00759	3.99762	3.89074	3.79978	3.71083	3.63943	3.69054	3.73456	3.74856	3.78359	3.85244	3.68568	3.70537	3.73548	3.7914	3.83201	3.87591	3.91546	3.95485	3.97855	3.96369	3.94758	3.9193	3.88276	3.82785	3.78231	3.73116	3.68336	3.63322	3.58109	3.55118	3.52359	3.4989	3.51883	3.51312	3.47896	3.44705	3.41559	3.39075	3.36401	3.35132	3.34069	3.44091	3.50271	3.57529	3.58713	3.58094	3.59092	3.59144	3.59972	3.61	3.61599	3.61467	3.63666	3.65782	3.68297	3.66862	3.63983	3.61954	3.61326	3.6369	3.67471	3.72431	3.80325	3.88678	3.92048	3.93586	3.94031	3.93129	3.89613	3.85339	3.7836	3.665	3.52806	3.37296	3.19491	3.0162	3.34815	3.58241	3.78398	3.78409	3.7629	3.74134	3.7269	3.71139	3.70115	3.69294	3.68772	3.67768	3.68926	3.69835	3.67822	3.605	3.5447	3.49442	3.45468	3.42434	3.40389	3.39128	3.39067	3.37413	3.3596	3.34626	3.33546	3.32577	3.31895	3.31322	3.3105	3.309	3.31045	3.31334	3.31892	3.32651	3.33628	3.3487	3.36303	3.3828	3.40173	3.42612	3.44848	3.47517	3.49936	3.52548	3.54998	3.57421	3.59772	3.61902	3.64064	3.64692	3.63398	3.6246	3.61489	3.61034	3.60553	3.6057	3.61802	3.63143	3.64125	3.65024	3.65753	3.66791	3.6744	3.687	3.69711	3.71355	3.72009	3.7335	3.73358	3.72461	3.70739	3.6888	3.67305	3.66051	3.67794	3.69575	3.68007	3.66676	3.65256	3.64189	3.63345	3.62792	3.62317	3.62418	3.57712	3.51976	3.46925	3.43421	3.45045	3.47668	3.50721	3.53441	3.56106	3.58402	3.57666	3.5717	3.5668	3.56478	3.56381	3.56652	3.52983	3.55072	3.57481	3.56275	3.54865	3.52466	3.53308	3.54085	3.59773	3.61836	3.67203	3.57093	3.40627	3.29196	3.24392	3.24697	3.43245	3.64421	3.78763	3.88451	3.92309	3.94454	3.94453	3.9432	3.91399	3.8811	3.81471	3.65801	3.69632	3.75453	3.86571	3.93495	3.95757	3.90647	3.85523	3.80528	3.7645	3.72916	3.68106	3.68461	3.71778	3.755	3.80026	3.84715	3.89312	3.93642	3.95417	3.95991	3.9473	3.8836	3.8235	3.76618	3.71525	3.66426	3.65856	3.63252	3.57877	3.57576	3.57746	3.58212	3.59009	3.60074	3.61347	3.62809	3.64394	3.66068	3.67738	3.69564	3.71344	3.73212	3.75066	3.76928	3.7882	3.80625	3.79864	3.78198	3.75605	3.70689	3.65527	3.6274	3.67713	3.69483	3.70513	3.73194	3.7461	3.75574	3.7697	3.77904	3.7896	3.7978	3.80948	3.81298	3.82575	3.82905	3.83361	3.82971	3.81519	3.80174	3.77327	3.75282	3.74701	3.7458	3.73861	3.75699	3.7595	3.76685	3.75027	3.64464	3.57932	3.51737	3.43743	3.40912	3.38068	3.37503	3.42676	3.46209	3.52638	3.56205	3.58687	3.61786	3.64281	3.6484	3.65424	3.65942	3.6708	3.6905	3.71063	3.72692	3.74212	3.75166	3.74936	3.75194	3.74452	3.75216	3.7579	3.76937	3.777	3.78976	3.79885	3.81258	3.82305	3.83657	3.84868	3.86243	3.86813	3.87241	3.87727	3.87994	3.88387	3.88479	3.88775	3.88688	3.88886	3.88576	3.88695	3.8826	3.88318	3.87869	3.85561	3.83361	3.82173	3.81759	3.82574	3.84885	3.87224	3.87568	3.87335	3.85071	3.79768	3.72291	3.70375	3.71322	3.76608	3.76223	3.70783	3.67945	3.65506	3.63727	3.63692	3.63662	3.67794	3.70469	3.72544	3.75856	3.89748	3.94923	4.01701	4.08681	4.13705	4.16773	4.17265	4.16725	4.12661	4.08651	4.04149	3.98893	3.92396	3.84488	3.80901	3.79161	3.75664	3.72513	3.69419	3.66953	3.64283	3.62367	3.60186	3.58922	3.57821	3.57216	3.56633	3.56154	3.55889	3.55395	3.55669	2.94144	3.56111	3.56374	3.56928	3.59921	3.6297	3.66393	3.69688	3.70877	3.6278	3.24584	2.82295	3.33641	3.30654	3.30384	3.33358	3.39606	3.487	3.56107	3.62956	3.70371	3.7764	3.7261	3.66217	3.57389	3.48476
-20	0	3.58308	3.65604	3.74376	3.73366	3.7999	3.87849	3.90167	3.9298	3.90787	3.8908	3.88516	3.89077	3.89058	3.88333	3.85378	3.82681	3.8176	3.7941	3.79022	3.81979	3.77257	3.79541	3.82887	3.8419	3.85647	3.91319	3.972	4.04414	4.09099	4.14019	4.21247	4.2653	4.27124	4.25263	4.2456	4.24918	4.20311	4.17078	4.1364	4.09124	4.06028	4.03607	4.01187	3.96562	3.92495	3.93335	3.93557	3.94436	3.9439	3.94839	3.93256	3.90947	3.92457	3.90385	3.88932	3.88161	3.86332	3.86491	3.76993	3.70824	3.64399	3.59339	3.54588	3.53027	3.51749	3.53706	3.60982	3.67203	3.73477	3.76528	3.76723	3.7888	3.83471	3.88265	3.95893	4.00002	4.03167	4.04884	4.05001	4.03513	4.01799	3.96447	3.9178	3.85619	3.75401	3.73707	3.71768	3.74324	3.74275	3.732	3.74866	3.7802	3.8198	3.85175	3.86531	3.86632	3.86291	3.85285	3.82119	3.81705	3.84478	3.87602	3.87772	3.86654	3.84627	3.82039	3.80547	3.80648	3.78243	3.77615	3.81088	3.79888	3.77576	3.75549	3.73694	3.70882	3.69336	3.69398	3.69075	3.71153	3.77251	3.85276	3.89017	3.88062	3.8761	3.87115	3.92394	3.95103	3.94805	3.92869	3.91128	3.88522	3.85828	3.8295	3.80226	3.72327	3.67908	3.67062	3.66386	3.66131	3.66239	3.67733	3.70086	3.74697	3.82169	3.83357	3.85817	3.87082	3.85599	3.82754	3.81074	3.78445	3.74561	3.7194	3.6932	3.66693	3.64334	3.61745	3.59248	3.57574	3.55805	3.5461	3.53754	3.52754	3.526	3.52322	3.5603	3.57861	3.60515	3.62523	3.59604	3.57142	3.56312	3.54614	3.55352	3.58366	3.60159	3.62033	3.62407	3.59029	3.53733	3.54613	3.66332	3.73332	3.77174	3.80183	3.88754	3.91672	3.9244	3.9272	3.94312	3.93048	3.8524	3.79255	3.73255	3.67853	3.62341	3.57877	3.53494	3.51579	3.56333	3.60346	3.5784	3.5431	3.54945	3.54164	3.52481	3.52538	3.52862	3.53262	3.51038	3.49414	3.4964	3.51084	3.51385	3.52066	3.5522	3.61985	3.72365	3.80197	3.89882	3.99571	4.0915	4.18211	4.27175	4.29119	4.2978	4.31537	4.31963	4.32052	4.24767	4.20075	4.13677	4.05491	3.97358	3.87999	3.81736	3.74908	3.68569	3.629	3.62979	3.64281	3.72916	3.85105	3.93752	4.0368	4.12496	4.19716	4.23836	4.23585	4.22591	4.18071	4.09553	3.98816	3.92191	3.85136	3.76301	3.71445	3.66066	3.63684	3.61802	3.59869	3.58383	3.61081	3.67067	3.76633	3.85151	3.9263	4.03998	4.14734	4.17891	4.19955	4.19405	4.16319	4.15349	4.1219	4.07676	4.03039	3.96599	3.92027	3.8809	3.85351	3.8455	3.86273	3.8499	3.87036	3.95193	4.05557	4.03139	4.01173	3.98639	3.95546	3.92566	3.89302	3.85309	3.79595	3.74243	3.69332	3.6354	3.57558	3.52473	3.53671	3.58395	3.60686	3.63505	3.65626	3.64884	3.62987	3.63994	3.68692	3.75598	3.79453	3.83427	3.85094	3.84694	3.81652	3.78675	3.76131	3.74107	3.72798	3.68502	3.68161	3.67711	3.66553	3.67616	3.7035	3.73424	3.80222	3.86266	3.90629	3.92965	3.92331	3.90639	3.86661	3.84961	3.83057	3.80007	3.73631	3.72227	3.69146	3.67252	3.63548	3.59245	3.55653	3.5714	3.58089	3.61644	3.66149	3.70743	3.73807	3.75165	3.75896	3.79022	3.84226	3.89003	3.88257	3.86913	3.86119	3.83684	3.76136	3.70219	3.68306	3.67644	3.71082	3.74705	3.79645	3.88662	3.99867	4.07692	4.01592	3.91239	3.83062	3.71711	3.61989	3.54497	3.49159	3.46101	3.46229	3.51572	3.62264	3.74342	3.80791	3.89092	3.96165	4.02981	4.06388	4.10435	4.14311	4.16004	4.15857	4.15683	4.14906	4.14655	4.1421	4.13738	4.13475	4.12602	4.1188	4.10819	4.05241	3.92398	3.8501	3.8101	3.79977	3.83701	3.89968	3.97761	4.053	4.12105	4.17536	4.18037	4.18266	4.18597	4.20583	4.27767	4.16835	4.11048	4.11791	4.13201	4.13476	4.09314	4.03368	4.01048	4.0296	4.16925	4.21464	4.19834	4.18412	4.18376	4.18375	4.17238	4.16152	4.0909	4.06958	4.08766	4.14157	4.22502	4.3373	4.41462	4.44347	4.49695	4.55626	4.58641	4.55622	4.53453	4.47641	4.41778	4.45407	4.53488	4.58356	4.65088	4.7445	4.84852	4.99214	5.10764	5.19978	5.25181	5.30813	5.34595	5.40432	5.48998	5.57599	5.65477	5.73619	5.83644	5.95896	6.13658	6.32705	6.54858	6.75513	7.02964	7.23663	7.53524	7.82779	8.0129	8.3196	8.63019	9.00104	9.40776	9.89129	10.5401	11.3322	12.2622	13.3997	14.7129	16.2478	18.1168	20.2359	22.9726	26.402	29.8541	33.8226	40.6709	50.2671	58.6496	77.8133	98.4024	116.024	128.869	138.203	140.34	135.061	105.405	89.882	73.4949	60.5868	49.8447	41.2934	34.1418	28.2732	23.8336	20.5278	17.8426	16.102	15.0961	13.7203	12.5322	11.6704	11.0197	10.2677	9.70169	9.19547	8.75674	8.39816	8.11716	7.82501	7.55843	7.34512	7.04961	6.78725	6.43868	6.21266	5.93773	5.64094	5.43154	5.26816	5.15002	5.04063	4.98498	4.94312	4.96129	4.93028	4.90663	4.87375	4.83335	4.7838	4.74508	4.71415	4.6828	4.65417	4.64765	4.61303	4.5152	4.43332	4.39105	4.33934	4.33359	4.28637	4.23054	4.18184	4.1354	4.09029	4.02529	3.98361	3.91853	3.92857	3.93635	3.94648	3.94936	3.95769	3.96976	3.99427	4.03621	4.08612	4.11068	4.1247	4.13795	4.12385	4.10934	4.10717	4.13026	4.12479	4.14712	4.1508	4.14526	4.15245	4.1529	4.10349	4.06813	4.01922	3.9676	3.89401	3.84633	3.80733	3.79475	3.8083	3.81996	3.8418	3.86491	3.86748	3.82817	3.81728	3.79706	3.77458	3.74962	3.72497	3.69952	3.66972	3.55917	3.47615	3.40415	3.34886	3.3046	3.29343	3.29593	3.28188	3.28623	3.3115	3.36249	3.42731	3.50429	3.55487	3.58255	3.62892	3.6632	3.71152	3.71847	3.71475	3.65329	3.60964	3.57025	3.53042	3.48852	3.45022	3.42486	3.3966	3.41086	3.42724	3.42618	3.42973	3.42965	3.43143	3.43334	3.43781	3.44261	3.44324	3.44728	3.45196	3.45424	3.4812	3.48617	3.49131	3.49507	3.49638	3.49477	3.49226	3.49101	3.48746	3.48097	3.47642	3.4677	3.46272	3.45235	3.44042	3.42742	3.39666	3.39253	3.3855	3.38383	3.37801	3.37936	3.38981	3.3945	3.39731	3.40245	3.41755	3.43198	3.44298	3.4556	3.46737	3.47736	3.48904	3.52637	3.52814	3.52734	3.5226	3.50824	3.46404	3.42246	3.41964	3.43161	3.47127	3.4664	3.43909	3.42732	3.41616	3.40394	3.38041	3.3379	3.35029	3.37162	3.39161	3.41851	3.44485	3.53826	3.51453	3.49198	3.47066	3.45687	3.47091	3.49762	3.51499	3.52692	3.51363	3.48619	3.46799	3.48724	3.48921	3.48087	3.4878	3.46693	3.46487	3.47173	3.51085	3.51038	3.53167	3.56792	3.6094	3.60196	3.54684	3.47813	3.4323	3.37696	3.32257	3.28683	3.27258	3.32642	3.346	3.37429	3.34653	3.31359	3.32281	3.30326	3.30159	3.30955	3.36133	3.38406	3.38196	3.376	3.35558	3.37838	3.39757	3.44203	3.55577	3.44834	3.57879	3.69095	3.78476	3.88596	3.90312	3.7876	3.73186	3.66371	3.62435	3.58458	3.55066	3.52139	3.49353	3.47539	3.45555	3.47983	3.48502	3.4894	3.48811	3.48981	3.48691	3.48796	3.48394	3.48279	3.4772	3.47363	3.46869	3.45754	3.45803	3.45236	3.45354	3.45767	3.46047	3.47145	3.4754	3.49566	3.52992	3.53604	3.53254	3.5357	3.52576	3.49729	3.46398	3.41185	3.37585	3.34409	3.34554	3.33066	3.30234	3.27	3.28467	3.32076	3.34437	3.35237	3.36061	3.39981	3.43942	3.48558	3.56897	3.5941	3.59595	3.62645	3.69003	3.72207	3.75745	3.76535	3.78647	3.79929	3.80332	3.82922	3.83902	3.83313	3.81668	3.80272	3.80148	3.79026	3.77066	3.73403	3.72119	3.69654	3.6831	3.65332	3.64622	3.63954	3.6454	3.65721	3.68862	3.74449	3.74506	3.72278	3.68652	3.68078	3.67736	3.64701	3.63322	3.6205	3.63023	3.67444	3.70007	3.71233	3.74244	3.73584	3.74016	3.70699	3.64737	3.62079	3.6236	3.64904	3.67786	3.67232	3.67237	3.65591	3.64426	3.63607	3.62456	3.61954	3.61176	3.6088	3.60371	3.60204	3.59969	3.58022	3.56997	3.55808	3.56726	3.57938	3.57834	3.57815	3.58163	3.58771	3.58927	3.58439	3.56954	3.54391	3.53834	3.53053	3.51284	3.51524	3.51365	3.51333	3.45129	3.41452	3.42073	3.44828	3.477	3.54051	3.60355	3.58427	3.15343	3.24699	3.4352	3.78628	3.88735	3.94978	3.95333	3.89394	3.82303	3.79959	3.75817	3.71425	3.66835	3.6179	3.57935	3.635	3.63217	3.66605	3.6715	3.66136	3.68653	3.68398	3.6622	3.62985	3.60304	3.53745	3.48007	3.46464	3.47002	3.52348	3.57723	3.63085	3.6806	3.73877	3.76513	3.79182	3.81619	3.79512	3.78791	3.78925	3.81931	3.83599	3.86145	3.85282	3.82389	3.79639	3.77525	3.78742	3.76049	3.73817	3.69103	3.69803	3.7409	3.77217	3.82069	3.85741	3.83496	3.77792	3.71436	3.65031	3.57776	3.51677	3.53319	3.5818	3.57134	3.54135	3.51491	3.502	3.47118	3.41851	3.38915	3.37242	3.42384	3.44844	3.44137	3.42138	3.37657	3.3711	3.36951	3.3471	3.31217	3.35948	3.37713	3.45682	3.50048	3.46446	3.47225	3.50771	3.54037	3.53035	3.53589	3.56183	3.61045	3.64474	3.6208	3.59634	3.5891	3.59014	3.5685	3.54126	3.52326	3.50493	3.50106	3.48291	3.47546	3.47592	3.48583	3.49057	3.4779	3.47416	3.48177	3.47513	3.45271	3.40604	3.41261	3.45969	3.47269	3.53845	3.59091	3.64075	3.77891
-20	20	3.30577	3.72485	4.06993	4.44344	4.62123	4.71446	4.77921	4.75605	4.64669	4.55058	4.45513	4.35435	4.25875	4.24956	4.25655	4.26416	4.28401	4.27409	4.22585	4.23734	4.25813	4.2829	4.29653	4.31172	4.31788	4.34981	4.34723	4.32611	4.30352	4.29599	4.32534	4.32733	4.30225	4.28692	4.27093	4.25359	4.24849	4.24574	4.23118	4.25171	4.27411	4.31672	4.35059	4.39273	4.42707	4.46151	4.49466	4.52707	4.55737	4.58242	4.60675	4.59961	4.59748	4.55497	4.52742	4.49916	4.41514	4.33569	4.27392	4.20203	4.07629	4.06431	4.05243	4.10163	4.13546	4.17497	4.22141	4.26529	4.30991	4.3521	4.39791	4.41131	4.40026	4.36312	4.39347	4.36667	4.33756	4.31946	4.29324	4.28425	4.26812	4.26507	4.25814	4.25172	4.23225	4.21009	4.22212	4.21102	4.19891	4.18223	4.1592	4.12903	4.10964	4.10293	4.07631	4.05988	4.07687	4.06594	4.09173	4.14482	4.19792	4.2372	4.26111	4.38618	4.44066	4.5071	4.58278	4.54305	4.43709	4.32937	4.23221	4.13149	4.07431	4.02996	3.99235	3.95513	3.93743	3.91859	3.93933	3.97964	4.01717	4.06928	4.11991	4.17803	4.23724	4.30075	4.36446	4.41806	4.494	4.53574	4.55054	4.56455	4.50859	4.46205	4.42419	4.38741	4.34714	4.29023	4.197	4.17947	4.16583	4.15454	4.15098	4.18509	4.20651	4.19564	4.15398	4.15422	4.15675	4.16262	4.20827	4.24129	4.28031	4.33842	4.36465	4.38781	4.40884	4.42778	4.42797	4.42851	4.40924	4.38086	4.35704	4.32638	4.28728	4.25091	4.23507	4.2205	4.20522	4.20387	4.20729	4.25145	4.27934	4.26366	4.24886	4.23708	4.22385	4.21458	4.2034	4.19664	4.19147	4.18907	4.1887	4.1921	4.19741	4.20389	4.21427	4.22482	4.24008	4.25423	4.27387	4.29092	4.31392	4.33282	4.32435	4.32143	4.32026	4.31972	4.32093	4.32441	4.33076	4.34138	4.38015	4.4192	4.45199	4.51856	4.57858	4.63282	4.66857	4.69508	4.70401	4.65548	4.59322	4.54218	4.52546	4.5507	4.5992	4.67184	4.72948	4.81932	4.90308	4.96441	4.98604	5.00743	4.98965	4.95504	4.90775	4.85488	4.7694	4.67781	4.59566	4.51698	4.4441	4.44113	4.3964	4.33542	4.26643	4.21976	4.16694	4.10359	4.09675	4.09222	4.09883	4.10381	4.12718	4.157	4.18228	4.20261	4.22993	4.25667	4.28178	4.30786	4.33103	4.35785	4.37912	4.39467	4.33302	4.28932	4.26567	4.27887	4.31758	4.33472	4.34705	4.3434	4.34054	4.33713	4.33525	4.33251	4.33195	4.33021	4.33103	4.33031	4.33234	4.33245	4.33539	4.33661	4.32215	4.31274	4.3016	4.26902	4.24204	4.18073	4.17589	4.17964	4.19601	4.22583	4.253	4.28196	4.31211	4.31656	4.31014	4.30263	4.29578	4.28757	4.28055	4.272	4.25725	4.18766	4.1039	3.99873	3.95598	3.92654	3.90889	3.94518	3.94481	3.89224	3.85765	3.83009	3.83607	3.86367	3.90658	3.94025	3.98066	4.02419	4.03266	4.04137	4.06188	4.05295	4.04161	4.02998	3.96481	3.93177	3.90942	3.86166	3.832	3.81848	3.79412	3.7743	3.826	3.85544	3.87468	3.91308	3.94512	3.97241	4.00393	4.02361	4.03941	4.05693	4.07109	4.08422	4.09844	4.09063	4.06163	4.0417	4.03773	4.03212	4.02713	4.04286	4.06293	4.07565	4.08533	4.10541	4.12796	4.13981	4.1453	4.17086	4.20128	4.22222	4.24481	4.23964	4.16934	4.07009	3.99722	3.9331	3.85962	3.78805	3.70996	3.69615	3.6885	3.88168	3.97787	4.08587	4.18932	4.28288	4.38851	4.4202	4.37025	4.33482	4.29177	4.2466	4.21597	4.17986	4.14994	4.13955	4.11052	4.17878	4.24859	4.35834	4.43288	4.51227	4.57622	4.60622	4.64679	4.64002	4.65045	4.65442	4.6512	4.62136	4.59215	4.54172	4.49569	4.43776	4.33508	4.2271	4.1869	4.2536	4.29707	4.35412	4.42207	4.44463	4.47605	4.52771	4.52391	4.52799	4.51972	4.55676	4.54179	4.52544	4.53578	4.54335	4.55694	4.59008	4.61689	4.64659	4.67185	4.6733	4.63279	4.56832	4.51708	4.47382	4.46746	4.47575	4.50836	4.56939	4.55462	4.54949	4.54666	4.54223	4.54561	4.6942	4.82534	4.96119	5.07191	5.18318	5.24446	5.31178	5.36446	5.40831	5.45367	5.45221	5.4562	5.4883	5.50254	5.52459	5.55248	5.60462	5.67149	5.78109	5.9064	6.05092	6.22035	6.40292	6.61021	6.83653	7.06588	7.30378	7.54645	7.79461	8.04182	8.2935	8.49887	8.74048	9.01097	9.30744	9.63789	10.0023	10.4073	10.9265	11.5605	12.2786	13.1234	14.1765	15.384	16.8531	18.4817	20.204	22.2141	24.9275	32.7593	34.7427	42.1415	51.0094	60.4008	68.8796	87.4955	112.233	142.251	168.253	178.273	189.212	161.649	138.675	110.779	91.9369	73.1068	58.6828	48.6184	40.8038	34.7258	29.9936	25.1076	21.7907	19.9183	18.4116	17.0471	15.7204	14.3316	13.2236	12.1475	11.2698	10.6522	10.0748	9.49808	8.98437	8.53895	8.15697	7.84054	7.56881	7.41687	7.27209	7.12193	6.98145	6.8479	6.73084	6.61909	6.50846	6.40245	6.29639	6.18818	6.08458	5.97813	5.88892	5.7816	5.68159	5.58294	5.48991	5.39981	5.31453	5.19938	5.09139	4.99107	4.88941	4.80147	4.73422	4.67033	4.55635	4.56273	4.57406	4.59915	4.63286	4.67354	4.71957	4.78057	4.8268	4.87382	4.92006	4.94975	4.95825	4.93696	4.88326	4.86144	4.8268	4.80416	4.77104	4.74639	4.68821	4.6022	4.49564	4.43522	4.44686	4.55132	4.69801	4.72505	4.72298	4.72279	4.7169	4.70766	4.7137	4.69181	4.66367	4.63535	4.59106	4.53207	4.49237	4.44505	4.40394	4.35849	4.31591	4.24465	4.14116	4.08837	4.03932	3.99433	3.95357	3.91752	3.88631	3.92832	3.93272	3.93876	3.93461	3.93384	3.93156	3.92917	3.90616	3.88735	3.89431	3.9101	3.90605	3.89651	3.89128	3.8814	3.87538	3.86518	3.8658	3.85426	3.8315	3.81909	3.80472	3.76883	3.73125	3.69479	3.69105	3.71835	3.71592	3.70143	3.68679	3.66946	3.6562	3.63929	3.62789	3.61158	3.60155	3.58762	3.52934	3.50558	3.56617	3.57003	3.57621	3.58463	3.59529	3.60568	3.62816	3.65586	3.68494	3.74104	3.77018	3.8025	3.83029	3.85922	3.88476	3.90966	3.93234	3.95289	3.9723	3.98845	4.00195	4.01262	4.02059	4.02599	4.00679	4.00756	3.99175	3.98782	3.98316	3.97947	3.97367	3.97019	3.93708	3.8666	3.78592	3.69518	3.68681	3.67377	3.6466	3.64775	3.64734	3.62523	3.63295	3.65797	3.68209	3.71335	3.75193	3.79922	3.83052	3.84818	3.83733	3.82374	3.82388	3.82963	3.83232	3.8401	3.84554	3.84815	3.79086	3.74564	3.72029	3.7402	3.77967	3.81512	3.84679	3.85807	3.87481	3.86792	3.86328	3.85867	3.85512	3.85349	3.8502	3.84868	3.87335	3.88072	3.88784	3.88185	3.86915	3.83499	3.77038	3.70755	3.64838	3.59394	3.53456	3.46705	3.40293	3.35161	3.28914	3.19722	3.18412	3.17611	3.17525	3.25394	3.29358	3.33859	3.38741	3.43841	3.49019	3.5412	3.5895	3.63771	3.68372	3.72513	3.76674	3.80098	3.79386	3.80756	3.82526	3.82855	3.83939	3.84476	3.84949	3.8544	3.85731	3.85962	3.86111	3.86132	3.86156	3.86011	3.85928	3.85652	3.85583	3.8534	3.85246	3.84968	3.83549	3.82224	3.8126	3.80139	3.82939	3.83632	3.84156	3.84333	3.8463	3.83907	3.84383	3.84609	3.84555	3.84843	3.84553	3.8469	3.85352	3.8593	3.87625	3.89072	3.9051	3.92091	3.95762	3.99589	4.0094	4.02727	4.03863	4.04688	4.05614	4.05117	4.03595	4.02322	4	3.97844	3.94839	3.91915	3.88643	3.86196	3.83515	3.81392	3.79705	3.76893	3.7898	3.80968	3.8925	3.86721	3.85438	3.84434	3.8482	3.89232	3.95396	3.98609	4.02493	4.07183	4.08604	4.09861	4.09386	4.06968	4.077	4.12742	4.09288	4.06331	4.02182	3.99025	3.98335	3.95641	3.93603	3.91344	3.93456	3.96774	4.0008	4.0169	4.00154	3.95099	3.90208	3.81387	3.70677	3.57821	3.58593	3.58988	3.59611	3.5958	3.58012	3.56758	3.55825	3.55559	3.55455	3.56119	3.56778	3.6295	3.66217	3.68298	3.65663	3.63892	3.63402	3.64085	3.66289	3.70214	3.75805	3.89234	3.93556	3.96499	3.9802	3.99701	4.02668	4.04618	4.04469	4.03279	4.02009	4.00235	3.98598	3.97354	3.95684	3.90155	3.83694	3.77815	3.75974	3.74065	3.75021	3.79123	3.83214	3.86587	3.95905	4.04914	4.08936	4.10281	4.10215	4.10207	4.10078	4.10091	4.09978	4.10518	4.10267	4.10325	4.10049	4.10113	4.09812	4.0987	4.09523	4.09484	4.09103	4.08977	4.08625	4.07792	4.06027	4.03484	4.02109	3.99746	3.99002	3.98114	3.9733	3.99513	4.00457	4.0325	4.03776	4.0509	4.11085	4.13614	4.14797	4.16752	4.18159	4.18177	4.15178	4.09649	4.0209	3.96657	3.91591	3.88222	3.85374	3.83245	3.81492	3.8086	3.80163	3.80903	3.81211	3.8262	3.85242	3.88017	3.90258	3.92486	3.96021	4.01005	4.06497	4.11811	4.17293	4.22796	4.27524	4.27562	4.28911	4.28281	4.26287	4.22975	4.21641	4.23247	4.13529	4.00779	3.90646	3.80609	3.73401	3.71242	3.69559	3.70547	3.71687	3.74128	3.77573	3.80295	3.84324	3.89644	3.95186	4.00844	4.06556	4.12362	4.15626	4.17421	4.19144	4.20998	4.16772	4.11793	4.08399	4.06607	4.07173	4.08688	4.10445	4.14337	4.16975	4.19831	4.23292	4.22743	4.18742	4.1579	4.10414	4.03945	3.99412	3.96758	3.9413	3.9238	4.02345	4.06434	4.09739	4.15306	4.1988	4.232	4.27071	4.292	4.31671	4.29341	4.28453	4.27205	4.26441	4.19237	3.92217	4.18855	4.11859
0	-20	2.67526	3.12898	3.54035	3.92678	4.17183	4.32475	4.51377	4.60536	4.61922	4.64422	4.60662	4.51017	4.40075	4.27692	4.15954	4.06816	3.98444	3.9153	3.87791	3.86798	3.86546	3.90393	3.96796	4.03925	4.09663	4.14601	4.17724	4.23685	4.22032	4.12876	4.11878	4.10615	4.11222	4.09682	4.09202	4.09559	4.10881	4.10049	4.08295	4.09341	4.09141	4.10425	4.08426	4.05002	4.02775	3.99058	3.94906	3.90802	3.8424	3.80255	3.76007	3.74695	3.7603	3.74828	3.75182	3.75817	3.77432	3.81648	3.83811	3.88219	3.9043	3.91944	3.92687	3.95537	3.9866	4.02652	4.07235	4.12269	4.13173	4.09807	4.02678	4.02714	3.99664	3.98368	3.95934	3.99219	4.01356	3.99926	3.98615	3.95967	3.8806	3.83645	3.82714	3.83698	3.87611	3.9232	3.98052	4.01365	4.02695	4.04468	4.08023	4.12146	4.12777	4.13234	4.12059	4.11648	4.10815	4.08608	4.08357	4.08052	4.0562	4.06959	4.09743	4.11082	4.12683	4.14719	4.176	4.19119	4.23195	4.21839	4.17166	4.12709	4.0634	4.00508	3.92284	3.89567	3.88978	3.90315	3.90471	3.87398	3.91223	3.93836	3.97769	3.98642	4.00281	4.03487	4.07988	4.09839	4.15799	4.16226	4.14883	4.14306	4.13797	4.13667	4.14873	4.13925	4.13872	4.11355	4.09352	4.04312	3.9873	3.93659	3.87228	3.8379	3.78472	3.74404	3.68811	3.68138	3.67839	3.68848	3.70397	3.74387	3.77173	3.84439	3.90228	3.91069	3.89836	3.89469	3.85892	3.81493	3.79165	3.76312	3.74009	3.68935	3.64504	3.59902	3.57605	3.56661	3.57111	3.61056	3.67	3.70422	3.7357	3.77782	3.80169	3.782	3.80661	3.85285	3.89149	3.94223	3.98369	3.98538	4.01215	4.03919	4.05754	4.09781	4.14343	4.17412	4.18117	4.18728	4.20318	4.1902	4.18325	4.18867	4.14128	4.08976	4.07882	4.08861	4.05864	4.06624	4.09131	4.10821	4.15984	4.22155	4.2012	4.17526	4.14248	4.14039	4.11511	4.10034	4.11441	4.11939	4.03559	3.99305	3.90635	3.8858	3.9239	3.93079	3.95904	3.97197	3.96569	3.98909	4.02341	4.03521	4.04844	4.05457	4.0596	4.09665	4.13193	4.12808	4.10523	4.0643	4.03012	3.85736	3.82988	3.84041	3.83277	3.80508	3.81669	3.82702	3.88916	3.96935	4.09797	4.07237	4.01719	3.99442	4.03689	4.07793	4.12837	4.14195	4.06386	3.99822	3.8053	3.85578	3.924	3.99631	4.06346	4.10157	4.14253	4.15103	4.17055	4.16096	4.14971	4.08649	4.05881	4.05422	4.05305	4.01408	3.99158	3.97119	4.00903	4.07593	4.09401	4.03997	3.96892	3.9029	3.84467	3.7882	3.74757	3.7114	3.90796	3.80182	3.80894	3.83182	3.89459	3.97946	4.05901	4.15058	4.17572	4.12743	4.06321	4.02152	4.01373	3.99972	3.99838	3.99757	3.99796	4.00417	4.0407	4.01574	3.96604	3.89951	3.85997	3.82621	3.81932	3.78459	3.79211	3.80828	3.83716	3.87395	3.92276	3.938	3.95028	3.97955	3.99181	4.00049	3.99781	3.947	3.85114	3.74848	3.67448	3.61413	3.6125	3.57225	3.56964	3.53506	3.55079	3.57844	3.59631	3.66067	3.7439	3.77271	3.72652	3.72777	3.83718	3.94838	3.93293	3.88359	3.82963	3.78946	3.78365	3.80031	3.79401	3.74037	3.72444	3.72437	3.71656	3.74631	3.76905	3.87867	3.95173	3.97108	3.89799	3.89089	3.87252	3.83744	3.77614	3.75159	3.74942	3.75684	3.73194	3.73811	3.74303	3.76539	3.79442	3.82953	3.88977	3.92628	3.90752	3.88142	3.8804	3.89973	3.90931	3.92056	3.97006	3.95232	3.94553	3.94783	3.97416	4.00425	4.02541	4.03376	4.04722	4.03725	4.06346	4.08915	4.12086	4.15827	4.1854	4.19965	4.2177	4.21956	4.18565	4.20555	4.18417	4.16125	4.09998	4.0339	3.97017	3.95909	3.97514	3.93245	3.95866	3.91343	3.97522	4.05595	4.16128	4.26719	4.33724	4.37862	4.38609	4.3966	4.42993	4.46138	4.45382	4.39687	4.29542	4.24378	4.3296	4.36122	4.37637	4.38145	4.37843	4.40266	4.45272	4.44643	4.42515	4.35116	4.31921	4.29125	4.25754	4.20221	4.18345	4.14715	4.11284	4.1036	4.08868	4.0907	4.11727	4.18167	4.26324	4.39118	4.43721	4.51367	4.55076	4.58953	4.61037	4.59069	4.59305	4.60414	4.65553	4.71929	4.76937	4.8106	4.85227	4.88351	4.89914	4.92474	4.95444	5.02863	5.121	5.1918	5.27469	5.35835	5.44464	5.54946	5.65084	5.75493	5.90671	6.07266	6.28388	6.52415	6.7392	6.99189	7.2854	7.59115	7.94945	8.35792	8.81503	9.31017	9.84825	10.4872	11.0929	11.7509	12.6561	13.5241	14.6146	15.8167	17.5043	19.6189	23.8553	27.7046	32.4326	38.5574	46.6599	56.5797	68.4126	90.4639	107.26	113.251	112.123	104.006	86.9345	76.1818	60.0098	51.0346	39.9212	32.1483	26.2281	21.4218	19.7708	17.8676	16.332	14.7813	13.6017	12.5049	11.4505	10.3098	9.58591	8.93425	8.42069	7.94307	7.5543	7.21123	6.95142	6.74477	6.60073	6.48676	6.40211	6.26844	6.16238	6.0924	6.03179	5.96258	5.88298	5.77282	5.67366	5.56049	5.44252	5.32701	5.22204	5.10188	4.96878	4.85209	4.6967	4.6164	4.56973	4.5832	4.5849	4.58498	4.58708	4.61873	4.62322	4.59033	4.56803	4.54235	4.53961	4.53645	4.50496	4.46629	4.42581	4.37087	4.35021	4.31983	4.30789	4.3108	4.29605	4.24345	4.19639	4.16427	4.11484	4.07439	4.02	3.96687	3.91765	3.88378	3.82983	3.77414	3.71403	3.69341	3.70955	3.73072	3.76691	3.79161	3.82323	3.85132	3.87933	3.91096	3.96404	4.00085	4.00883	4.02113	4.02499	3.92353	3.88514	3.84165	3.93274	3.90916	3.87285	3.85228	3.84603	3.85933	3.86677	3.86579	3.8484	3.88192	3.88057	3.89422	3.88862	3.86071	3.81581	3.80253	3.806	3.84319	3.8815	3.93176	3.89365	3.85123	3.81219	3.80569	3.78351	3.78186	3.7774	3.76528	3.76564	3.76442	3.7559	3.76729	3.76257	3.77052	3.78017	3.75543	3.7567	3.73443	3.7152	3.69947	3.67722	3.63543	3.60403	3.58497	3.58919	3.62812	3.64704	3.64791	3.67147	3.62007	3.66243	3.62664	3.69176	3.8047	3.96373	4.02646	4.03119	4.00586	3.97312	3.93495	3.89031	3.82723	3.9777	3.86799	3.6473	3.52607	3.35666	3.32247	3.40857	3.75863	3.95176	4.03598	4.15148	4.16565	3.22275	3.65695	3.71193	3.72777	3.76869	3.79294	3.80145	3.76983	3.77896	3.7788	3.8021	3.79965	3.81034	3.80869	3.79347	3.79069	3.78124	3.77965	3.72572	3.70819	3.6906	3.68767	3.70432	3.71416	3.74681	3.77131	3.79158	3.78333	3.7671	3.74993	3.73573	3.72583	3.77287	3.82888	3.8868	3.95411	4.00876	4.07313	4.11008	4.1221	4.14544	4.16022	4.11308	4.01383	3.8772	3.70895	3.57294	3.53052	3.49431	3.53772	3.60225	3.65507	3.76625	3.83214	3.86588	3.85741	3.85242	3.86085	3.86128	3.88024	3.91735	3.9361	3.88503	3.81187	3.70716	3.5858	3.54115	3.5215	3.54854	3.54127	3.59944	3.64646	3.68371	3.73334	3.79109	3.81672	3.83558	3.84792	3.85753	3.88942	3.90932	3.88777	3.87748	3.85485	3.84124	3.81773	3.79961	3.79124	3.79246	3.76168	3.75938	3.74223	3.7112	3.68381	3.65004	3.61269	3.51463	3.44876	3.40439	3.34656	3.33748	3.3891	3.45497	3.59318	3.65222	3.70259	3.73034	3.76854	3.80073	3.81302	3.83709	3.84308	3.84184	3.84638	3.84036	3.84718	3.81625	3.82109	3.81184	3.82607	3.84773	3.89372	3.92713	3.92179	3.93098	3.93298	3.94071	3.95642	3.97263	3.9891	3.99191	3.9991	4.02732	4.05959	4.07169	4.11288	4.12836	4.14797	4.15495	4.16783	4.14244	4.14003	4.12572	4.09786	4.0592	3.94943	3.83834	3.77311	3.71846	3.64046	3.6027	3.55196	3.54336	3.56439	3.57889	3.63078	3.70916	3.81412	3.87525	3.9628	4.01493	4.02388	3.98091	3.96824	3.95271	3.94981	3.94626	3.91672	3.85118	3.7986	3.75509	3.72166	3.70789	3.70441	3.72361	3.77262	3.90131	3.95833	4.03234	4.07922	4.1266	4.15025	4.13445	4.08071	4.01073	3.92286	3.88214	3.83129	3.7931	3.80977	3.77401	3.73536	3.76358	3.76676	3.79414	3.84895	3.93405	3.99062	4.03564	4.08652	4.11015	4.13332	4.12756	4.08278	4.01741	3.96392	3.90767	3.82722	3.72578	3.61751	3.5568	3.52933	3.58905	3.58528	3.67151	3.75279	3.79351	3.82525	3.83557	3.83962	3.83602	3.85483	3.88684	3.91122	3.95166	3.97963	3.9973	4.01864	4.05207	4.04884	4.05208	4.04957	4.05381	4.06061	4.04677	3.99234	3.94563	3.89829	3.8616	3.82695	3.81977	3.80744	3.80208	3.77371	3.76349	3.77904	3.79726	3.83982	3.86647	3.84987	3.85399	3.83797	3.80383	3.82772	3.87903	3.92438	3.95969	4.0267	4.11434	4.17835	4.22276	4.20687	4.13758	4.07535	4.00939	3.93518	3.84474	3.79922	3.77704	3.76205	3.77423	3.78167	3.80517	3.82627	3.84892	3.88589	3.91718	3.93534	3.92871	3.93216	3.89303	3.87473	3.86124	3.83671	3.81847	3.8046	3.78625	3.7779	3.76647	3.75879	3.77219	3.76976	3.77878	3.79111	3.81999	3.87948	3.95658	4.00186	4.02165	4.03795	4.03723	4.02615	3.99493	3.98743	3.97783	4.00066	4.02861	4.03459	4.03069	4.0229	4.0122	3.97056	3.96718	3.97051	3.97738	4.00194	4.01213	4.0288	4.02458	4.02288	4.01305	3.99564	3.98866	3.96069	3.89964	3.83443	3.77538	3.71752	3.67115	3.60475	3.54146	3.52163	3.55726	3.59311	3.6308	3.67052	3.69437	3.73651	3.78644	3.83547	3.88174	3.9163	3.93509	3.9491	3.94316	3.92941	3.92521	3.88248	3.8299	3.75196	3.65568	3.52568	3.3393	3.12218
0	0	3.38936	3.58259	3.80244	3.97665	3.99536	4.09458	4.1558	4.19233	4.23637	4.25063	4.25723	4.25819	4.26548	4.28193	4.29985	4.31387	4.31943	4.33986	4.31135	4.26318	4.22878	4.18653	4.13232	4.12588	4.12261	4.13095	4.11522	4.11956	4.13858	4.13162	4.13372	4.13152	4.1314	4.10044	4.01762	3.8948	3.81734	3.8029	3.78849	3.78122	3.79824	3.85587	3.90072	3.92686	3.96039	3.98978	4.00312	4.01336	4.01168	4.01639	4.05106	4.10479	4.08184	4.02286	3.97732	3.91865	3.87534	3.85365	3.85944	3.90873	3.97934	4.16141	4.16799	4.17533	4.18135	4.19348	4.19942	4.20399	4.20974	4.21076	4.21397	4.2238	4.22693	4.19051	4.13262	4.05759	4.01559	3.98926	3.97129	3.97882	3.96064	3.94028	3.91856	3.8788	3.85634	3.84709	3.83997	3.81425	3.78331	3.75522	3.71192	3.7121	3.72386	3.73934	3.82745	3.89082	3.9479	4.00126	4.07497	4.11822	4.17505	4.24263	4.24804	4.17793	4.12503	4.03987	3.95633	3.88145	3.80951	3.73796	3.65299	3.62872	3.61481	3.59262	3.58382	3.60807	3.65869	3.74292	3.81594	3.87962	3.97937	3.98893	3.97001	3.95351	3.88594	3.84041	3.79882	3.74754	3.70313	3.66573	3.62536	3.59788	3.56627	3.54955	3.52904	3.54667	3.55693	3.58619	3.60228	3.62354	3.64772	3.67313	3.70315	3.73128	3.76504	3.79589	3.83062	3.86183	3.89776	3.92837	3.96426	3.99293	4.02579	4.01176	3.98825	3.99254	3.99021	3.98631	3.98226	3.97877	3.94756	3.94356	3.89528	3.85468	3.79751	3.7729	3.82275	3.88228	3.96607	3.99984	4.06012	4.1369	4.19866	4.25451	4.29652	4.31405	4.24789	4.24791	4.2387	4.21552	4.18966	4.10749	3.99473	3.90233	3.77988	3.73438	3.78536	3.83876	3.90987	3.96613	4.03425	4.09285	4.19574	4.23382	4.2624	4.27019	4.25791	4.24826	4.19412	4.15075	4.08141	3.98516	3.88647	3.79151	3.69359	3.62181	3.55545	3.54071	3.50664	3.50146	3.49055	3.57149	3.65943	3.75234	3.85839	3.95722	4.06538	4.16648	4.26674	4.36538	4.42652	4.43985	4.48511	4.51229	4.50066	4.48157	4.44913	4.43092	4.40774	4.37235	4.35537	4.29894	4.25073	4.1834	4.13331	4.07299	4.01271	3.99331	3.93296	3.89336	3.88738	3.92297	3.9429	3.9722	4.02271	4.06293	4.09922	4.13991	4.14843	4.16265	4.17948	4.19091	4.22622	4.22282	4.21445	4.20621	4.19462	4.18285	4.16547	4.11205	4.07844	4.05814	4.02635	3.9951	3.97756	3.95239	3.93842	3.93384	3.93936	3.98668	4.02602	3.99051	3.93861	3.88109	3.90193	3.96018	4.06724	4.19283	4.34968	4.48898	4.53025	4.56303	4.48066	4.36859	4.30318	4.25188	4.32621	4.2589	4.1676	4.05633	3.93695	3.82378	3.73114	3.68304	3.91669	3.82322	3.73754	3.74268	3.77549	3.83177	3.90807	3.97692	3.99382	4.03808	4.06317	4.01815	3.96786	3.9024	3.85601	3.82034	3.79482	3.74603	3.69696	3.63658	3.60576	3.58372	3.57676	3.64591	3.82085	3.90109	3.86952	3.77961	3.71612	3.69714	3.71733	3.77933	3.87512	3.99221	4.33123	4.30344	4.24386	4.15998	4.09497	4.05787	4.01111	3.9788	3.92156	3.90672	3.88765	3.88554	3.87851	3.86113	3.86059	3.88834	3.91753	3.92863	3.93089	3.89565	3.85617	3.80595	3.76331	3.69357	3.63019	3.58514	3.51669	3.45381	3.42845	3.39047	3.38399	3.42597	3.46244	3.50118	3.54145	3.58644	3.6329	3.68053	3.72849	3.77717	3.82572	3.87506	3.92491	3.96056	3.96796	3.9872	3.98907	3.9882	3.98838	3.98579	3.97956	3.97117	3.93766	3.90001	3.92498	3.94897	3.97589	4.0027	4.09219	4.14149	4.18479	4.22026	4.2422	4.26634	4.29298	4.29292	4.29184	4.29021	4.24264	4.19604	4.15073	4.10359	4.05646	4.00922	3.96249	3.91575	3.86971	3.8253	3.78262	3.74282	3.70692	3.67529	3.64937	3.62818	3.63908	3.64231	3.64389	3.64194	3.69599	3.75354	3.83414	3.91235	3.966	4.02806	4.08319	4.1832	4.26703	4.38474	4.47673	4.57467	4.61708	4.52153	4.49657	4.45235	4.42102	4.41419	4.36405	4.33566	4.31195	4.2671	4.29111	4.27939	4.31294	4.34486	4.402	4.51812	4.63535	4.73838	4.82497	4.90585	4.97831	5.0354	5.03585	5.04164	5.05599	5.0798	5.11274	5.11403	5.11546	5.16242	5.2027	5.28108	5.37131	5.49074	5.6369	5.84032	6.04582	6.26545	6.52122	6.76504	7.02045	7.25167	7.47471	7.73191	7.97223	8.21757	8.5057	8.86757	9.23424	9.68778	10.1511	10.8173	11.5038	12.5624	13.5339	14.8755	16.2557	17.9623	19.8479	22.208	24.9291	27.8932	31.7837	36.9502	44.6067	54.4603	68.8558	88.4973	105.917	131.608	153.725	158.751	159.883	134.505	110.671	94.016	73.294	58.2024	46.1849	39.9825	35.1588	31.2474	27.9101	24.1737	20.4033	18.126	16.1754	14.573	13.2898	12.2184	11.4102	10.6983	10.1235	9.65941	9.25229	8.78183	8.38228	8.05751	7.71012	7.42938	7.15754	6.89716	6.6341	6.41626	6.2726	6.1468	6.05922	5.95484	5.92531	5.88238	5.84344	5.83567	5.83529	5.60617	5.52882	5.46345	5.4037	5.34571	5.28677	5.16644	5.03695	4.92259	4.84313	4.73697	4.65845	4.58434	4.51726	4.46182	4.40498	4.3628	4.32112	4.28871	4.25907	4.23347	4.21565	4.19701	4.18869	4.17821	4.17859	4.17714	4.18545	4.1772	4.18668	4.17899	4.14943	4.11003	4.10217	4.08346	4.07205	4.05924	4.05486	4.04624	4.04973	4.0852	4.16092	4.21683	4.25121	4.28642	4.35366	4.32041	4.27405	4.21593	4.15352	4.08654	4.08216	4.10568	4.15396	4.16233	4.11401	4.06047	3.99513	3.93824	3.88417	3.86864	3.84035	3.82666	3.80718	3.7899	3.77736	3.76723	3.7523	3.75113	3.75244	3.70939	3.68194	3.64345	3.61852	3.59912	3.58415	3.56621	3.52468	3.58829	3.68325	3.78276	3.82147	3.8452	3.86744	3.88521	3.90688	3.92421	3.93387	3.94285	3.95175	3.95331	3.94058	3.92929	3.9321	3.93158	3.92062	3.89554	3.87948	3.87936	3.891	3.91248	3.89442	3.87718	3.851	3.83721	3.8083	3.8053	3.8015	3.7838	3.74704	3.70874	3.66939	3.62956	3.59125	3.55215	3.51543	3.47923	3.44527	3.41343	3.38408	3.35594	3.36679	3.3535	3.34474	3.33078	3.31957	3.30787	3.28872	3.28173	3.27903	3.27139	3.26162	3.26505	3.27125	3.28022	3.29421	3.30959	3.33138	3.35675	3.38542	3.41637	3.45225	3.48283	3.51601	3.54907	3.58185	3.61635	3.58863	3.53798	3.50053	3.48193	3.47303	3.53242	3.57038	3.63776	3.64565	3.64665	3.67798	3.68943	3.73446	3.78841	3.84236	3.89838	3.95615	4.01099	4.06057	4.11361	4.1212	4.12409	4.12477	4.10051	4.07415	4.04061	4.0195	3.98337	3.96145	3.91903	3.91467	3.92503	3.92088	3.87388	3.82521	3.77478	3.72209	3.67182	3.61903	3.56635	3.52114	3.46263	3.45629	3.45593	3.56781	3.5946	3.58233	3.59708	3.6188	3.64868	3.67481	3.70509	3.74223	3.79907	3.80836	3.78781	3.75883	3.71741	3.68301	3.64666	3.61994	3.60362	3.59734	3.58535	3.6495	3.6798	3.72242	3.75348	3.73917	3.76585	3.80635	3.89289	3.94418	3.96208	3.96826	3.94754	3.9531	3.95828	3.98011	3.99755	4.00623	4.00813	4.02842	3.99918	3.90668	3.82241	3.76592	3.70586	3.66678	3.61822	3.57505	3.53465	3.50198	3.47009	3.448	3.42468	3.40997	3.39645	3.39066	3.39527	3.41431	3.452	3.54579	3.91984	3.95154	3.94388	3.91758	3.8256	3.71394	3.72598	3.73707	3.9208	3.93447	3.91635	3.91697	3.92475	3.93461	3.94272	3.94452	3.95455	3.96006	3.96489	3.96664	3.96746	3.9676	3.96715	3.92999	3.89363	3.85432	3.81595	3.77873	3.74695	3.92982	3.93491	3.92437	3.9145	3.90445	3.89526	3.8866	3.8729	3.83575	3.83348	3.8445	3.80909	3.79303	3.77031	3.74343	3.7439	3.75683	3.80553	3.84428	3.85255	3.85443	3.85537	3.8579	3.85865	3.86024	3.86105	3.84815	3.83918	3.80925	3.80571	3.79683	3.78898	3.77473	3.75704	3.75618	3.78115	3.76032	3.74275	3.71944	3.70231	3.6726	3.65821	3.63443	3.62081	3.56666	3.57014	3.57952	3.59163	3.60636	3.6331	3.73101	3.76872	3.75934	3.73645	3.72916	3.7504	3.77143	3.81519	3.88111	3.94025	3.98546	3.9283	3.91469	3.88493	3.86661	3.84804	3.83024	3.78507	3.72897	3.7129	3.69862	3.68945	3.71276	3.73349	3.74187	3.78788	3.82216	3.82961	3.85709	3.88338	3.91035	3.89524	3.86945	3.8464	3.8276	3.81994	3.79635	3.77277	3.77606	3.76918	3.77663	3.78771	3.75347	3.69766	3.62114	3.58508	3.59795	3.61567	3.63341	3.66219	3.68376	3.7041	3.727	3.7519	3.77947	3.80764	3.83797	3.85208	3.86358	3.89177	3.89982	3.88875	3.82559	3.75007	3.66938	3.59337	3.51708	3.44625	3.3754	3.33406	3.31408	3.39179	3.43347	3.47336	3.51352	3.55337	3.59333	3.62947	3.66146	3.68799	3.70252	3.70407	3.62023	3.51565	3.38483	3.2303	3.07602	2.98058	3.33456	3.58177	3.72976	3.78458	3.79968	3.79689	3.75918	3.68876	3.65939	3.6668	3.71235	3.77595	3.81443	3.84464	3.8743	3.88699	3.86325	3.97623	3.99424	4.02607	4.03204	4.00448	4.00847	3.96229	3.89938	3.85303	3.80425	3.76639	3.79498	3.81143	3.81824	3.84879	3.86884	3.88656	3.86383	3.84104	3.81938	3.79861	3.77851	3.76067	3.74661	3.73521	3.72616	3.7202	3.71639	3.71616	3.71778	3.72329	3.73045	3.74155	3.75427	3.76009	3.76308	3.76549	3.7747	3.77707	3.7823	3.75438	3.75667	3.78603	3.81299	3.86592	3.95292	3.94849	3.54025	3.25695
0	20	4.16939	4.05199	3.96406	3.9261	3.87075	3.85845	3.82935	3.8389	3.83638	3.86095	3.85137	3.83493	3.84799	3.85903	3.86069	3.89417	3.92329	3.9551	3.98265	4.00885	4.0325	4.04128	4.03628	3.96355	3.82507	3.76913	3.74549	3.7465	3.76875	3.79418	3.84069	3.90604	3.96702	4.00529	4.05125	4.03864	3.99955	3.96138	3.92968	3.90291	3.88102	3.91217	3.90409	3.95386	3.9534	3.96521	3.90429	3.86513	3.8175	3.83637	3.86467	3.901	3.9429	3.98918	4.04075	4.08664	4.1024	4.10517	4.13254	4.16097	4.21137	4.22534	4.25087	4.27171	4.2622	4.24205	4.20249	4.15477	4.1063	4.04485	4.00677	3.9736	3.94014	3.94985	3.94482	3.97099	3.95576	3.9603	3.95189	3.93869	3.93682	3.93011	3.89313	3.87754	3.86576	3.85715	3.84858	3.82162	3.80436	3.8094	3.81785	3.82419	3.8317	3.83796	3.84562	3.85291	3.86106	3.86935	3.87597	3.87372	3.89529	3.92832	3.96776	4.00967	4.04448	4.05092	4.02353	4.02798	4.03015	4.03748	4.02509	4.01302	4.02368	3.91149	3.88586	3.86688	3.84861	3.83424	3.82452	3.81742	3.84728	3.83699	3.85294	3.86359	3.87303	3.88127	3.8593	3.85711	3.85269	3.84924	3.84534	3.84186	3.83811	3.8356	3.83349	3.83239	3.83131	3.8224	3.81939	3.70558	3.76784	3.81009	3.84151	3.8524	3.89502	3.99829	4.01327	3.99472	3.97425	3.95546	3.89405	3.81371	3.58427	3.53489	3.56741	3.58494	3.74652	3.81818	3.87627	3.90825	3.94573	3.99068	4.03564	4.08308	4.12634	4.13093	4.14441	4.14485	4.13423	4.12157	4.0885	4.05544	4.01592	3.97759	3.93433	3.89463	3.85283	3.82053	3.82848	3.84669	3.83411	3.80273	3.77326	3.75162	3.74688	3.78242	3.84442	3.92213	3.95822	4.01386	4.10209	4.21596	4.28905	4.31852	4.29955	4.28172	3.96476	3.93077	3.91261	3.91133	3.93053	3.96494	3.99806	4.03187	4.06325	4.09623	4.14299	4.15282	4.1454	4.13783	4.13187	4.12576	4.12166	4.11772	4.11594	4.1149	4.11583	4.11811	4.12199	4.12769	4.13453	4.14345	4.15301	4.16485	4.17687	4.19119	4.20519	4.22162	4.23081	4.25225	4.2691	4.25432	4.24009	4.2348	4.2313	4.22921	4.22669	4.17116	4.1874	4.24387	4.30122	4.30662	4.28758	4.27323	4.2598	4.24646	4.23394	4.22197	4.2115	4.2231	4.18974	4.14894	4.10659	4.07981	4.06296	4.06385	4.07513	4.08066	4.09129	4.10862	4.12664	4.12752	4.13067	4.14133	4.15016	4.16503	4.17924	4.19347	4.17262	4.15296	4.13038	4.10574	4.08578	4.06252	4.04144	4.01716	3.98237	3.96562	3.94853	3.94601	3.94205	3.94047	3.94481	3.94686	3.91423	3.88947	3.85803	3.82933	3.80662	3.77859	3.73175	3.66219	3.59585	3.52149	3.53113	3.64878	3.72732	3.81477	3.89477	3.95398	3.99944	4.01387	4.01083	4.01081	4.01057	4.01254	4.01266	4.01393	4.01528	4.01686	4.01789	4.01895	4.01912	4.01888	4.01794	4.01605	4.01391	3.98521	3.96061	3.92705	3.90223	3.88354	3.86931	3.83977	3.84247	3.82557	3.81539	3.8108	3.81796	3.8207	3.81932	3.82532	3.82891	3.83766	3.84493	3.85509	3.86428	3.87643	3.83857	3.80838	3.72047	3.64875	3.57347	3.55234	3.48882	3.51277	3.56203	3.61177	3.66774	3.72859	3.7927	3.8586	3.92671	3.99417	4.04033	4.08142	4.12399	4.16534	4.17888	4.16396	4.11643	4.08122	4.02385	3.93943	3.85858	3.77973	3.70597	3.62769	3.61551	3.71528	3.78362	3.85812	3.93963	4.01721	4.12243	4.16796	4.17008	4.15397	4.11028	4.06663	4.02238	3.98479	3.9501	3.91895	3.89305	3.87094	3.87063	3.87232	3.9254	3.95217	3.98221	4.01286	4.04461	4.08595	4.04625	3.96413	3.90249	3.91185	3.9515	4.00953	4.06568	4.12754	4.18894	4.25954	4.32015	4.47369	4.4925	4.50849	4.50169	4.50452	4.49203	4.47961	4.46964	4.45791	4.38009	4.28406	4.34188	4.30423	4.26642	4.21963	4.14687	4.1419	4.17307	4.20982	4.26737	4.36695	4.43694	4.54084	4.60229	4.63125	4.66832	4.69979	4.72795	4.76066	4.7894	4.82311	4.85255	4.88722	4.92039	4.93472	4.91282	4.87722	4.84154	4.84666	4.8596	4.88455	4.91282	5.00338	5.05924	5.12853	5.24297	5.34668	5.44907	5.54288	5.61357	5.69784	5.78823	5.89748	5.99399	6.07259	6.22012	6.41805	6.81273	7.01814	7.17668	7.36604	7.54264	7.71397	7.89354	8.0601	8.21696	8.44865	8.99177	9.42873	9.7944	10.3155	10.9752	11.6939	12.5678	13.6849	14.9825	16.5133	18.234	20.1853	22.4603	24.9925	28.1212	31.7777	36.9857	44.4073	46.6174	56.9103	78.7494	93.5791	115.445	141.424	177.338	194.915	218.188	211.678	183.086	152.652	126.114	97.0982	79.8506	64.8411	53.4738	43.8686	35.7075	30.7729	27.3324	25.0727	21.6494	19.9302	18.7961	16.8583	15.4612	14.1244	13.1746	12.4804	11.8101	10.8825	10.3117	9.82724	9.43118	9.08872	8.80158	8.55646	8.34255	8.00082	7.6963	7.43095	7.20662	7.00012	6.81882	6.66349	6.57792	6.52298	6.35234	6.2124	6.12981	5.98305	5.82111	5.66751	5.51429	5.28288	5.22764	5.18824	5.14833	5.11085	5.06757	5.02779	4.9805	4.93572	4.88146	4.8047	4.71705	4.62973	4.5533	4.4636	4.38408	4.28641	4.26024	4.23074	4.21751	4.19992	4.21606	4.21367	4.2228	4.2235	4.2002	4.1701	4.14151	4.11286	4.08054	4.05569	4.02602	4.024	4.08555	4.13706	4.19316	4.24245	4.25696	4.29041	4.27428	4.25124	4.22658	4.20203	4.18609	4.16578	4.15386	4.09667	4.10047	4.1003	4.10067	4.07466	4.05298	4.03177	4.0285	3.98307	3.928	3.88323	3.84521	3.82527	3.8475	3.87709	3.92231	3.96622	4.03724	4.02379	4.01208	3.99663	3.96025	3.93497	3.91227	3.88541	3.85164	3.82987	3.79971	3.77394	3.74454	3.72062	3.69347	3.66929	3.63801	3.61671	3.58461	3.58402	3.61613	3.6283	3.65613	3.68761	3.7192	3.75365	3.79181	3.83062	3.86617	3.87075	3.86831	3.8781	3.87617	3.88621	3.9502	3.93482	3.90476	3.83743	3.76297	3.69859	3.6138	3.56223	3.52907	3.54374	3.53363	3.53901	3.54757	3.5668	3.57869	3.59722	3.61523	3.61393	3.61732	3.62051	3.62722	3.63339	3.64831	3.65793	3.67456	3.68537	3.69709	3.70649	3.71831	3.71574	3.71496	3.71709	3.72238	3.72385	3.72509	3.72464	3.72492	3.72496	3.72375	3.72163	3.71632	3.71134	3.69272	3.68725	3.6759	3.67148	3.66967	3.66551	3.66507	3.67569	3.69333	3.6794	3.66141	3.64048	3.61484	3.59478	3.56888	3.54159	3.49835	3.45848	3.40902	3.39562	3.38237	3.37647	3.36947	3.38583	3.39637	3.41149	3.4255	3.44435	3.46031	3.48145	3.49976	3.50428	3.50872	3.50717	3.48771	3.47357	3.45909	3.44392	3.43188	3.41958	3.41096	3.41114	3.38228	3.33532	3.34288	3.40016	3.44486	3.49734	3.55465	3.61044	3.65227	3.69262	3.73236	3.76926	3.80089	3.82793	3.85654	3.86115	3.85541	3.84513	3.79584	3.7289	3.66581	3.60616	3.54389	3.48188	3.41266	3.36363	3.31355	3.26854	3.23224	3.23765	3.27719	3.30458	3.25142	3.20544	3.40807	3.52676	3.6462	3.7667	3.85734	3.73311	3.71355	3.69282	3.66812	3.63934	3.60184	3.54904	3.56603	3.59955	3.63743	3.68413	3.70908	3.74705	3.72552	3.70769	3.69231	3.65812	3.63322	3.6445	3.65432	3.67941	3.71096	3.73825	3.72607	3.74176	3.76947	3.76433	3.77616	3.81963	3.89612	3.92101	3.92539	3.90739	3.88228	3.86559	3.85004	3.78063	3.60125	2.9663	3.81433	3.81764	3.82403	3.83381	3.84285	3.85604	3.87709	3.90207	3.93169	3.9398	3.93124	3.91572	3.91788	3.90198	3.85427	3.84587	3.84468	3.86481	3.85065	3.91279	4.04334	4.04511	3.96649	3.89986	3.84824	3.55328	3.52548	3.70729	3.82046	3.831	3.89705	3.9737	4.04921	4.12722	3.76282	3.80185	3.82723	3.67196	3.56485	3.54689	3.53448	3.55836	3.58905	3.61367	3.63367	3.65275	3.67228	3.69504	3.59889	3.44006	3.29536	3.50884	3.53299	3.57014	3.61944	3.67291	3.72973	3.78831	3.84895	3.89157	3.93574	3.98394	4.02129	3.99282	3.94342	3.88737	3.83856	3.77607	3.7172	3.67223	3.63654	3.61347	3.59983	3.59915	3.60548	3.6254	3.65864	3.72682	3.74325	3.76643	3.78496	3.79548	3.77721	3.77042	3.73951	3.73942	3.7124	3.67464	3.63474	3.60284	3.59707	3.603	3.62449	3.65303	3.69601	3.7573	3.81702	3.88607	3.95765	4.02428	4.06821	4.09305	4.10127	4.10502	4.06669	4.01651	3.94376	3.89755	3.86988	3.8702	3.89361	3.93	3.9712	4.04221	4.02578	4.00773	3.99196	3.97867	3.96546	3.9524	3.93893	3.93672	3.92702	3.88768	3.8831	3.87911	3.85772	3.86052	3.87605	3.9167	3.91555	3.89785	3.8709	3.83817	3.80969	3.7875	3.77591	3.77495	3.76257	3.76154	3.76739	3.7556	3.74948	3.76494	3.80604	3.83399	3.86078	3.8826	3.9039	3.91058	3.90563	3.90658	3.8976	3.89489	3.87983	3.88929	3.91295	3.93623	3.95684	3.98563	3.97758	3.97458	3.98033	3.99714	4.01233	4.01318	4.01561	4.02238	4.03383	4.05033	4.07216	4.09996	4.12704	4.13347	4.12259	4.10434	4.07218	4.04748	4.03397	4.0113	3.99079	3.97229	3.95271	3.93854	3.89037	3.84569	3.84426	3.85076	3.86985	3.85972	3.87541	3.89254	3.89268	3.8892	3.88982	3.89037	3.89526	3.89936	3.90824	3.90203	3.89222	3.88266	3.87483	3.86724	3.86063	3.8548	3.84724	3.84203	3.83398	3.82983	3.82205	3.81912	3.81285	3.81137	3.81909	3.82273	3.82781	3.82527	3.8307	3.8147
20	-20	3.79409	4.08622	4.3253	4.52607	4.71605	4.90375	5.01219	5.06925	5.09761	5.11903	5.13788	5.15272	5.15074	5.08357	5.09975	5.01575	5.08142	5.17355	5.17477	5.15145	5.12544	5.11633	5.10229	5.07278	5.04894	5.01678	4.98613	4.95174	4.92152	4.88324	4.85065	4.81292	4.77959	4.74393	4.71174	4.6778	4.65121	4.62415	4.598	4.57979	4.5734	4.5604	4.55831	4.58612	4.6555	4.74578	4.81829	4.83893	4.83083	4.83495	4.84494	4.85702	4.88553	4.85394	4.80973	4.78174	4.75499	4.72345	4.64993	4.47136	4.42475	4.39779	4.42881	4.44726	4.47618	4.50685	4.534	4.56593	4.59851	4.62586	4.65615	4.66738	4.66676	4.67508	4.6862	4.65479	4.62959	4.59994	4.57139	4.55197	4.51474	4.47648	4.43041	4.31898	4.34634	4.30987	4.26878	4.2365	4.20418	4.17788	4.15824	4.13893	4.17448	4.20096	4.21337	4.24001	4.27844	4.31142	4.34624	4.32317	4.31405	4.35644	4.4088	4.47385	4.53976	4.61573	4.66838	4.61541	4.58539	4.54381	4.49278	4.43028	4.36012	4.2856	4.20786	4.13343	4.07426	4.01646	3.95892	3.8662	3.81662	3.84921	3.90817	3.96796	4.03331	4.09727	4.15989	4.20901	4.45963	4.04062	3.90917	4.02375	4.14912	4.27145	4.38295	4.47488	4.58511	4.55261	4.5156	4.45431	4.39232	4.31747	4.24876	4.20134	4.05985	4.08819	4.14978	4.21537	4.28759	4.36336	4.43209	4.50707	4.57453	4.60073	4.62374	4.61402	4.61389	4.62935	4.66303	4.66246	4.67471	4.62498	4.61912	4.62198	4.62409	4.63152	4.65523	4.658	4.62977	4.56815	4.50871	4.44382	4.37935	4.31444	4.25141	4.19285	4.08911	4.06489	4.04311	4.03156	4.06501	4.1113	4.13135	4.16281	4.18966	4.23059	4.26574	4.29828	4.33256	4.36511	4.39679	4.4278	4.45549	4.48353	4.5055	4.52972	4.51169	4.51727	4.51864	4.51828	4.517	4.5208	4.52277	4.51516	4.51805	4.51476	4.52133	4.53066	4.54521	4.55789	4.57302	4.58919	4.60478	4.62259	4.63837	4.65688	4.6725	4.691	4.71051	4.72975	4.74876	4.7672	4.78418	4.80037	4.81413	4.82657	4.83578	4.84371	4.84862	4.84457	4.84222	4.83468	4.82552	4.81097	4.80291	4.76664	4.72147	4.65994	4.60377	4.5359	4.47342	4.41502	4.35693	4.29687	4.2477	4.19988	4.159	4.13079	4.18669	4.27078	4.36651	4.46294	4.51099	4.56091	4.61292	4.67204	4.72538	4.78664	4.86192	4.92226	4.96525	4.99586	5.01595	4.98555	4.95232	4.91009	4.86681	4.80576	4.74514	4.69135	4.64411	4.62441	4.60521	4.58104	4.55735	4.53917	4.52422	4.51166	4.5025	4.49479	4.49086	4.48734	4.48814	4.48826	4.49169	4.497	4.48689	4.49747	4.5125	4.52658	4.54497	4.56227	4.58373	4.60461	4.5871	4.58241	4.63856	4.67888	4.71162	4.73928	4.76853	4.80164	4.84571	4.87057	4.89296	4.90251	4.87659	4.86639	4.85581	4.84477	4.82901	4.79704	4.76488	4.73907	4.70984	4.69061	4.7001	4.71433	4.74297	4.7742	4.80129	4.77732	4.7423	4.71492	4.68935	4.66335	4.63916	4.61557	4.594	4.57465	4.55772	4.54331	4.53147	4.52209	4.51504	4.51012	4.51182	4.50923	4.50613	4.51391	4.51512	4.51786	4.52411	4.52774	4.53306	4.53348	4.53933	4.54032	4.54652	4.54865	4.55528	4.55912	4.56632	4.57249	4.5807	4.5902	4.60022	4.57115	4.59513	4.62374	4.65012	4.68166	4.71057	4.74461	4.77142	4.79445	4.82192	4.85231	4.88345	4.92516	4.96928	5.01894	5.06168	5.09615	5.131	5.15721	5.18109	5.14515	5.14689	5.15497	5.15931	5.16077	5.11276	5.06287	5.0126	4.99257	4.96662	4.96174	4.95888	4.9714	4.97088	4.94507	4.87919	4.81927	4.749	4.68284	4.61916	4.55391	4.48795	4.42544	4.38323	4.35162	4.29674	4.33428	4.35588	4.39007	4.42526	4.46735	4.50899	4.55036	4.595	4.63772	4.6821	4.71316	4.69518	4.67538	4.66513	4.70003	4.74893	4.81191	4.88715	4.88583	4.82421	4.76379	4.69632	4.6242	4.54995	4.48302	4.41442	4.34425	4.28069	4.17574	4.14173	4.11493	4.09129	4.14473	4.16355	4.18008	4.21328	4.24254	4.27107	4.30271	4.3339	4.36539	4.39687	4.42621	4.4561	4.48169	4.46897	4.46226	4.47212	4.50229	4.51958	4.54614	4.56595	4.57535	4.57911	4.57741	4.57512	4.57498	4.5723	4.57044	4.56817	4.56531	4.56424	4.56132	4.56209	4.55994	4.56305	4.56262	4.56841	4.57069	4.57927	4.59042	4.60337	4.61948	4.6385	4.65576	4.67775	4.68812	4.71827	4.73822	4.74851	4.77402	4.79024	4.81185	4.83473	4.86262	4.89192	4.92802	4.95816	4.99517	5.04158	5.10149	5.30907	5.58215	6.36211	6.96817	7.23252	7.32513	7.0909	6.86542	6.57127	6.14215	5.71731	5.32145	4.95026	4.60971	4.29522	4.13189	4.40167	4.44642	4.50451	4.61077	4.70623	4.82172	4.89752	4.941	4.92976	4.89131	4.8544	4.81778	4.77802	4.66888	4.52221	4.38292	4.24148	4.11452	4.00537	3.92103	3.86986	3.85211	3.8862	3.95593	4.08601	4.21772	4.31786	4.39641	4.43641	4.46344	4.5052	4.45771	4.40209	4.34036	4.27396	4.20802	4.14042	4.07795	4.00842	3.94905	3.98086	4.02639	4.08788	4.13341	4.10721	4.13596	4.18661	4.29729	4.37208	4.44015	4.46422	4.48491	4.50321	4.48075	4.4474	4.39412	4.34002	4.2902	4.24201	4.19799	4.1595	4.12271	4.09141	4.06629	4.04963	4.04445	4.02291	4.06615	4.10537	4.16005	4.21024	4.26859	4.32484	4.38093	4.438	4.49372	4.54484	4.55597	4.56202	4.55982	4.51384	4.4978	4.46664	4.40832	4.34435	4.28328	4.22503	4.17534	4.12589	4.09572	4.06616	4.13848	4.19001	4.26733	4.3375	4.3405	4.32432	4.33227	4.32464	4.32092	4.32089	4.31831	4.321	4.35715	4.37841	4.38479	4.41635	4.42959	4.42023	4.32761	4.26896	4.21631	4.17892	4.14621	4.12154	4.11	4.09969	4.10136	4.07965	4.10322	4.12163	4.15328	4.18044	4.21802	4.25442	4.29545	4.33669	4.37774	4.40003	4.4128	4.42491	4.40189	4.27997	4.21222	4.15936	4.14246	4.1487	4.31186	4.32575	4.32712	4.2843	4.24502	4.23788	4.40748	4.59325	4.61627	4.596	4.49126	4.43045	4.38655	4.3731	4.36654	4.17262	4.02844	3.91631	3.84015	3.78509	3.73738	3.70772	3.75066	3.80134	3.85258	3.89585	3.9374	3.97138	4.00533	4.03268	4.06002	4.08184	4.10359	4.12038	4.13727	4.15326	4.18436	4.18368	4.18567	4.18126	4.18014	4.1728	4.16891	4.13651	4.08326	4.01523	3.99501	4.00566	4.00736	4.01306	4.05809	4.10003	4.12756	4.14608	4.15894	4.21466	4.26473	4.38716	4.43562	4.47099	4.51205	4.54959	4.60687	4.59981	4.59171	4.51892	4.44344	4.32349	4.21562	4.09585	3.99395	3.89888	3.79671	3.78882	3.7819	3.7847	3.79441	3.80831	3.82201	3.84166	3.8345	3.85479	3.9062	3.92815	3.95209	3.97225	3.99416	4.01341	4.03652	4.05368	4.07749	4.07142	4.07301	4.08581	4.09083	4.0972	4.11233	4.12526	4.13916	4.15706	4.18291	4.20701	4.19371	4.2397	4.27951	4.32859	4.37156	4.42236	4.46729	4.51827	4.56422	4.61431	4.66034	4.68747	4.71711	4.74096	4.73464	4.7042	4.69496	4.67477	4.67074	4.66071	4.67211	4.66558	4.67046	4.65094	4.65651	4.67769	4.68968	4.71266	4.75264	4.74183	4.68739	4.6463	4.60446	4.55838	4.49982	4.44428	4.38727	4.33538	4.28006	4.2236	4.18282	4.20464	4.18789	4.18943	4.18686	4.18314	4.18715	4.1906	4.20128	4.21233	4.22881	4.24702	4.27987	4.30124	4.32246	4.34808	4.37081	4.39839	4.42179	4.4466	4.4396	4.4046	4.37379	4.31523	4.31765	4.34762	4.3652	4.42697	4.49212	4.55657	4.59928	4.6508	4.69592	4.74214	4.77233	4.81353	4.84868	4.78555	4.71977	4.65317	4.60891	4.53853	4.46045	4.45519	4.45108	4.4444	4.38868	4.34315	4.29608	4.28431	4.26774	4.25379	4.25469	4.24398	4.24497	4.24062	4.24633	4.24484	4.25386	4.25589	4.26715	4.27471	4.28828	4.29683	4.32618	4.33326	4.32483	4.38693	4.45441	4.5252	4.54104	4.5973	4.64111	4.66329	4.69064	4.7191	4.71721	4.71829	4.74748	4.78737	4.82797	4.86237	4.86631	4.87414	4.87844	4.88329	4.88903	4.88906	4.8941	4.87378	4.83737	4.75547	4.69282	4.63791	4.5859	4.53441	4.4751	4.4426	4.43316	4.41171	4.44216	4.45542	4.46769	4.44964	4.43692	4.41943	4.40869	4.39713	4.38684	4.38017	4.37265	4.37299	4.36923	4.34174	4.36885	4.39551	4.42887	4.46902	4.51361	4.56794	4.54653	4.51772	4.55225	4.58097	4.60509	4.62977	4.65464	4.64348	4.61686	4.56394	4.50804	4.45387	4.40916	4.37582	4.37587	4.36136	4.34004	4.32294	4.25263	4.20139	4.06519	3.97346	4.2079	4.21957	4.20512	4.19924	4.15582	4.19248	4.23153	4.27684	4.32326	4.36817	4.42552	4.4715	4.52937	4.63573	4.6302	4.61302	4.58754	4.58817	4.46564	4.40721	4.36252	4.3481	4.33596	4.3145	4.33831	4.37389	4.36371	4.33473	4.30343	4.27788	4.24806	4.22522	4.19726	4.19977	4.18198	4.1639	4.16372	4.14641	4.12528	4.08797	4.05601	4.04663	4.03287	4.02426	4.01659	4.00227	3.98289	3.96766	3.94833	3.93301	3.91445	3.89923	3.88223	3.8674	3.8528	3.83571	3.81897	3.80381	3.7915	3.78292	3.77184	3.76879	3.7756	3.80093	3.82883	3.85924	3.92876	3.97255	4.0096	4.05394	4.09224	4.13599	4.17492	4.21713	4.25606	4.2668	4.26233	4.25326	4.24704	4.24745	4.23999	4.2177	4.17947	4.1326	4.07831	4.02003	3.96606	3.89638	3.8215	3.74496	3.65915	3.56454	3.39819
20	0	4.74675	4.89834	4.90985	4.88321	4.86208	4.79198	4.72163	4.65222	4.55163	4.51826	4.46325	4.34121	4.14026	4.10619	4.09612	4.15331	4.11295	4.12475	4.15803	4.23084	4.30777	4.29369	4.27634	4.26494	4.24865	4.23193	4.21359	4.20451	4.19421	4.19052	4.18564	4.18424	4.18655	4.18418	4.20271	4.2254	4.25666	4.28806	4.32178	4.32878	4.28901	4.23363	4.20107	4.13368	4.10509	4.1075	4.15165	4.17694	4.17101	4.14355	4.12426	4.06885	4.04643	4.07732	4.10479	4.16238	4.22354	4.28262	4.33346	4.3775	4.42017	4.43451	4.42898	4.37969	4.31795	4.2626	4.19139	4.1289	4.06639	4.00854	3.93954	3.91936	3.9003	3.87986	3.92014	3.96754	4.01793	4.07443	4.15604	4.19756	4.24089	4.2746	4.31364	4.32875	4.33066	4.3142	4.26532	4.22241	4.1689	4.18352	4.11861	4.05338	4.03531	4.02168	4.05439	4.06779	4.07591	4.06128	4.02848	3.97793	3.95681	4.01016	4.09346	4.18292	4.24402	4.2821	4.28858	4.26391	4.19198	4.18442	4.19278	4.22333	4.25922	4.29271	4.31603	4.33872	4.33864	4.35273	4.37349	4.37182	4.40002	4.43444	4.45713	4.44928	4.43894	4.41891	4.40201	4.41763	4.45409	4.50153	4.52994	4.56039	4.57474	4.5255	4.50179	4.48438	4.47305	4.44635	4.37369	4.31955	4.27007	4.2143	4.14317	4.05721	4.01946	4.02126	4.05852	4.13742	4.18273	4.32485	4.31412	4.31738	3.29727	3.68884	4.05503	4.27688	4.22449	4.05888	4.0972	4.11675	4.107	4.11706	4.09134	4.02639	3.9551	3.90571	3.88352	3.90233	3.9614	3.99738	4.02311	4.03924	4.02374	4.0129	4.01593	4.01718	4.03668	4.04437	4.04174	4.02778	3.99721	3.97094	3.94508	3.94845	3.94521	4.0259	4.10092	4.14512	4.15806	4.15693	4.16758	4.14963	4.16104	4.17721	4.19257	4.20221	4.22392	4.1983	4.19803	4.20589	4.20506	4.23397	4.24482	4.26328	4.2556	4.23407	4.25108	4.30404	4.35026	4.36621	4.33905	4.36289	4.33561	4.27401	4.33442	4.40325	4.51605	4.5721	4.62078	4.6129	4.47403	4.36189	4.29495	4.23009	4.17722	4.0858	4.02393	3.97975	3.95973	4.00826	4.02116	4.05097	4.0748	4.06937	4.10056	4.11056	4.08215	4.04306	4.06061	4.01963	4.01556	3.98905	3.9725	3.9559	3.94529	3.95755	3.98447	3.99816	4.05034	4.12281	4.23772	4.38165	4.45189	4.45404	4.4717	4.48583	4.42795	4.41968	4.42591	4.40344	4.39453	4.37296	4.35363	4.34149	4.32588	4.31302	4.33569	4.31368	4.29256	4.26824	4.24721	4.2063	4.18013	4.14467	4.11675	4.0906	4.0684	4.04686	4.03202	4.0176	4.01171	4.0044	4.00489	4.00467	4.01621	4.02905	4.05059	4.06837	3.93781	3.8715	3.90384	3.92674	3.93226	4.01795	4.0863	4.13711	4.14685	4.10405	4.00763	3.89059	3.87864	4.01974	4.00557	3.99171	3.97895	3.96495	3.94436	3.93196	3.92863	3.91522	3.90532	3.89311	3.86623	3.86439	3.83709	3.62863	3.49814	3.47109	3.46805	3.52823	3.62242	3.79376	3.88571	3.95354	3.97608	3.90125	3.86078	3.89606	3.86574	3.86789	3.86742	3.88367	3.91227	3.95575	3.97884	3.98488	3.99278	4.01795	3.99433	3.96442	3.93478	3.91449	3.87862	3.893	3.94803	3.99203	4.03547	4.09956	4.12787	4.13183	4.13593	4.04141	3.96092	3.91267	3.88203	3.8555	3.82078	3.81816	3.80103	3.79096	3.74633	3.69867	3.71719	3.74912	3.78843	3.79662	3.75616	3.77435	3.76938	3.8266	3.91761	3.99104	4.0425	4.13365	4.21932	4.29111	4.37882	4.3857	4.39758	4.36857	4.27525	4.20421	4.12406	4.03545	3.95874	3.88728	3.80575	3.7674	3.7471	3.99298	3.98865	4.0249	4.08419	4.12536	4.2084	4.20933	4.23158	4.23074	4.23311	4.23387	4.27222	4.25148	4.13312	4.10253	4.16756	4.17212	4.18151	4.09999	4.10183	4.11644	4.17924	4.22528	4.2519	4.25897	4.24266	4.1189	4.10108	4.04197	4.04648	4.08044	4.12411	4.10741	4.13941	4.18986	4.26587	4.35433	4.43417	4.49476	4.53507	4.56891	4.60774	4.66554	4.73104	4.80111	4.83234	4.85769	4.87242	4.88794	4.88653	4.89232	4.90312	4.91327	4.92955	4.97145	5.0206	5.09452	5.17502	5.26273	5.3569	5.45334	5.55977	5.66535	5.78385	5.9065	6.05917	6.20388	6.35896	6.49954	6.664	6.82554	6.99755	7.18115	7.36948	7.57716	7.79252	7.98536	8.21589	8.49366	8.75523	9.05798	9.33765	9.69198	10.0841	10.6745	11.2796	11.9607	12.7942	13.4165	14.2822	15.051	16.1761	17.4657	19.0891	21.0231	23.4223	26.2836	29.8227	34.2121	39.5437	45.3593	54.098	63.8339	75.6718	96.0381	122.587	145.882	179.763	212.292	242.66	246.575	227.737	206.489	162.181	137.338	102.505	83.6546	68.9474	57.808	49.0259	41.5451	36.7208	31.4987	27.0312	23.0195	18.8925	18.3965	17.7254	16.8105	15.6891	14.8314	13.6493	12.9318	11.7947	10.9465	10.2792	10.0149	9.65496	9.32941	8.89534	8.43541	8.05488	7.74766	7.45684	7.28573	7.19205	7.09313	6.97487	6.84416	6.74882	6.65638	6.5632	6.48026	6.41756	6.35429	6.32305	6.19812	6.02848	5.92884	5.83616	5.74331	5.65115	5.63707	5.56697	5.49521	5.4034	5.28355	5.16094	4.9851	4.88387	4.71668	4.64556	4.63212	4.6192	4.60021	4.5719	4.53648	4.54253	4.53749	4.54973	4.56952	4.55632	4.50516	4.4618	4.43994	4.36512	4.29713	4.29212	4.28924	4.29747	4.27064	4.21336	4.18629	4.18056	4.19202	4.28196	4.32995	4.35152	4.38601	4.38343	4.35784	4.29848	4.18695	4.02827	3.86179	3.80527	3.8042	3.78423	3.80108	3.8875	3.93276	3.98284	4.02577	4.07331	4.10954	4.15873	4.16041	4.12363	4.08586	4.05136	4.0299	4.01462	4.01721	4.0188	4.01872	4.02581	4.03156	4.03861	4.0481	4.05526	4.06627	4.07124	4.08626	4.0853	4.10065	4.09854	4.04983	3.92198	3.80977	3.73061	3.65827	3.61865	3.64053	3.67096	3.65105	3.65781	3.67401	3.68057	3.69118	3.7441	3.74992	3.75884	3.75456	3.74386	3.71346	3.64851	3.58982	3.56124	3.53167	3.51474	3.49167	3.51285	3.53712	3.56481	3.6176	3.64554	3.60985	3.5428	3.54413	3.58188	3.61033	3.64168	3.67057	3.67285	3.67986	3.67555	3.6671	3.65358	3.59174	3.5314	3.48479	3.43039	3.16549	3.30181	3.4724	3.70117	3.59998	3.56156	3.51619	3.54597	3.56021	3.61985	3.62953	3.59032	3.56437	3.52608	3.48874	3.47114	3.45491	3.45642	3.43581	3.40921	3.38335	3.41918	3.46511	3.50484	3.55776	3.52388	3.26022	3.26199	3.34188	3.39957	3.45226	3.38133	3.38409	3.39999	3.42602	3.45868	3.49547	3.55434	3.57656	3.4717	3.43314	3.46556	3.55918	3.63212	3.69452	3.72496	3.77163	3.76493	3.73464	3.73279	3.74823	3.75502	3.76284	3.75086	3.79543	3.73109	3.69804	3.66942	3.64153	3.6306	3.64313	3.59391	3.54402	3.50702	3.44905	3.43308	3.43005	3.42934	3.46809	3.49112	3.54222	3.55566	3.56864	3.58102	3.59455	3.60532	3.61879	3.61931	3.59827	3.54931	3.56798	3.56133	3.52791	3.52403	3.51272	3.53673	3.55166	3.59233	3.60765	3.63891	3.6369	3.6286	3.62202	3.61634	3.61092	3.60928	3.60333	3.60748	3.61205	3.61533	3.64362	3.74284	3.81148	3.876	3.92271	3.95845	3.97381	3.93759	3.90078	3.8177	3.75541	3.67521	3.68023	3.6912	3.68466	3.69743	3.60683	3.64844	3.6678	3.69934	3.74472	3.80697	3.86554	3.97276	4.07608	4.11134	4.12967	4.12337	4.14599	4.14349	4.14484	4.13949	4.11836	4.07045	4.02832	3.98699	3.87513	3.79805	3.79674	3.83652	3.84264	3.90122	3.97794	4.04401	4.09168	4.11311	4.09556	4.03323	3.98032	3.87273	3.82001	3.74209	3.63472	3.59717	3.60269	3.62733	3.64757	3.70904	3.88038	3.95431	3.99719	4.04572	4.19666	4.19659	4.19204	4.19933	4.16732	4.12429	4.06718	4.03396	4.01438	3.99541	3.94742	3.94257	3.94137	3.94117	3.94422	3.94661	3.95523	3.96071	3.97503	3.99599	3.97339	3.94702	3.87286	3.84069	3.79302	3.73773	3.70917	3.68801	3.68297	3.64559	3.60795	3.6046	3.60177	3.6662	3.70556	3.75063	3.8013	3.84626	3.88735	3.92776	3.97254	4.00989	4.00813	4.00012	3.98619	3.97058	3.96012	3.92766	3.89746	3.86473	3.83006	3.80029	3.75083	3.71317	3.67029	3.66592	3.65236	3.64945	3.66251	3.68932	3.72313	3.76616	3.74504	3.72757	3.73858	3.72402	3.76667	3.80403	3.82096	3.85089	3.86172	3.83086	3.8206	3.80155	3.79672	3.77143	3.75958	3.7207	3.70269	3.68227	3.65999	3.63975	3.62738	3.61069	3.62116	3.67911	3.76471	3.83522	3.90401	3.97959	4.04904	4.11498	4.16682	4.1725	4.17207	4.17832	4.15244	4.10188	4.08815	4.07775	4.02071	3.97373	3.91993	3.8502	3.82651	3.79227	3.73094	3.64501	3.63514	3.63744	3.66747	3.70563	3.75662	3.77712	3.79062	3.78219	3.77599	3.77166	3.76846	3.76767	3.76699	3.77704	3.77974	3.7735	3.78502	3.81171	3.83744	3.84078	3.79825	3.81416	3.81796	3.84176	3.84031	3.89248	3.92923	3.95055	3.9462	3.97215	3.97269	3.97385	3.97511	3.97662	3.9788	3.97988	3.98143	3.98198	3.98281	3.98229	3.98108	3.97884	3.97474	3.96929	3.962	3.95481	3.9456	3.93668	3.92584	3.91544	3.90522	3.89291	3.87955	3.86609	3.85326	3.84126	3.82865	3.81744	3.80611	3.79636	3.78682	3.77913	3.77171	3.76627	3.76108	3.75767	3.7546	3.75332	3.75258	3.75334	3.75591	3.76077	3.76559	3.77267	3.77972	3.78911	3.7979	3.80878	3.81825	3.82865	3.83486	3.72949	3.3958
20	20	4.12765	4.03716	3.98879	3.9433	3.91367	3.92354	3.8957	3.95523	3.99801	4.04446	4.16278	4.25397	4.33831	4.41935	4.42464	4.43748	4.44772	4.46577	4.47356	4.4811	4.41576	4.23237	4.033	3.84445	3.70295	3.58078	3.47187	3.40456	3.37054	3.31985	3.38471	3.46026	3.54466	3.6461	3.75004	3.8471	3.95128	4.03004	4.07779	4.07324	4.06171	4.01812	3.90906	3.80413	3.78505	3.69642	3.60151	3.50112	3.40796	3.31001	3.2849	3.06461	3.24033	3.4277	3.63494	3.84426	4.04021	4.19965	4.24592	4.29069	4.31802	4.34736	4.36738	4.36957	4.35405	4.34436	4.33172	4.31181	4.2747	4.22914	4.18614	4.1423	4.10591	4.06128	4.00303	3.90099	3.54081	3.94939	3.98871	3.98116	3.97843	3.97323	3.9667	3.9604	3.96501	3.93537	3.88309	3.8379	3.80143	3.74872	3.75929	3.76857	3.87206	3.95341	4.02972	4.11171	4.15213	4.16308	4.17291	4.15794	4.13649	4.11567	4.09874	4.09417	4.08157	4.07439	4.06261	4.02454	3.97487	3.92999	3.85769	3.85768	3.90576	3.9415	4.00896	4.03595	4.06512	4.16665	4.16203	4.14926	4.13606	4.11883	4.06384	4.01018	3.93209	3.83551	3.79472	3.77835	3.76807	3.75548	3.75102	3.74114	3.72906	3.70669	3.68321	3.65686	3.64895	3.64354	3.66313	3.6824	3.71001	3.74362	3.78397	3.83131	3.87733	3.9149	3.94833	3.9907	4.04074	4.083	4.10654	4.12822	4.11822	4.10453	4.08979	4.06683	4.0576	4.04664	4.04105	4.03484	4.03228	4.02915	4.02875	4.02855	4.0513	4.06572	4.04001	4.01241	4.08725	4.08284	4.07033	4.03542	4.01065	4.00022	3.98784	3.98377	3.9862	3.98948	4.04545	4.08453	4.09903	4.09098	4.06633	4.04031	3.97771	3.96099	3.93509	3.89767	3.86289	3.85094	3.83322	3.85332	3.87563	3.90691	3.93713	3.96551	3.99013	4.01298	4.05551	4.16229	4.23253	4.30691	4.33135	4.34929	4.36178	4.36579	4.36184	4.2502	4.15938	4.08437	4.12052	4.07258	4.05258	4.05579	4.01028	3.93505	3.91789	3.9411	3.95014	4.00761	4.07209	4.1395	4.2058	4.27998	4.34688	4.41926	4.46157	4.46611	4.47464	4.46782	4.45417	4.39642	4.3509	4.30946	4.28279	4.23139	4.14485	4.14423	4.14638	4.16422	4.23021	4.25548	4.27196	4.28112	4.28651	4.2439	4.22909	4.20668	4.18731	4.17526	4.16618	4.16093	4.1571	4.16013	4.13724	4.1167	4.07044	4.02053	3.96877	3.92656	3.88271	3.85143	3.80645	3.80509	3.82967	3.85007	3.87253	3.90161	3.93204	3.95683	3.98971	4.00825	4.0052	3.99959	3.98904	3.9918	3.99783	3.9981	3.96136	3.91834	3.84408	3.7675	3.68615	3.61888	3.55229	3.50524	3.46086	3.53225	3.54894	3.60961	3.68812	3.78802	3.90239	4.00486	4.06756	3.84988	3.74828	3.66782	3.60509	3.55537	3.49857	3.45069	3.43885	3.49961	3.55557	3.84706	3.82285	3.79224	3.65829	3.49487	3.32055	3.1823	3.06574	3.01416	3.20956	3.42475	3.55909	3.67097	3.76282	3.84434	3.91914	3.99562	4.05554	4.12508	4.14429	4.05639	4.01992	4.02519	4.06561	4.10483	4.12115	4.10086	4.04495	3.98565	3.92029	3.85689	3.7881	3.71424	3.63978	3.56898	3.50974	3.54966	3.57222	3.53665	3.51838	3.5307	3.57327	3.74277	3.96954	4.0917	4.16923	4.27477	4.33974	3.75916	3.66692	3.79895	3.84503	3.87465	3.90768	3.88406	3.8662	3.8628	3.79087	3.70496	3.63524	3.59826	3.63443	3.69006	3.76638	3.85381	3.92132	3.9964	4.04222	4.05594	4.01271	3.95244	3.89172	3.81761	3.74442	3.64513	3.58738	3.52755	3.43282	3.39695	3.40087	3.4219	3.46435	3.4985	3.54539	3.59628	3.64635	3.70242	3.75747	3.81296	3.86555	3.91955	3.96891	3.99474	4.03209	4.07205	4.10724	4.14419	4.15278	4.14952	4.14752	4.14057	4.12486	4.09913	4.07286	4.05018	4.0257	4.00449	3.98656	3.9711	3.95984	3.95887	3.95529	3.97045	3.99601	4.06123	4.132	4.17275	4.19033	4.16797	4.14769	4.11961	4.09941	4.09104	4.06141	4.07179	4.08293	4.10296	4.17758	4.25849	4.31925	4.36963	4.44078	4.50416	4.55127	4.60873	4.68387	4.70933	4.72396	4.74281	4.66617	4.65311	4.63206	4.59418	4.59181	4.58408	4.56611	4.60977	4.65578	4.78425	4.87646	4.99271	5.13957	5.28487	5.42961	5.57687	5.70875	5.86209	6.00076	6.12958	6.20891	6.32559	6.44042	6.57651	6.73575	6.91275	6.99786	7.12242	7.28383	7.51706	7.76844	8.04079	8.41063	8.81939	9.29411	9.93189	10.6882	11.6224	12.6857	13.7927	15.3368	17.0881	19.1364	21.6847	25.0474	28.8287	34.2475	40.2462	47.2693	57.9353	69.6349	92.8733	108.01	123.574	136.559	131.435	120.886	103.072	78.8176	64.6002	51.7211	42.687	33.6219	29.0575	25.6531	22.2974	19.6097	17.6405	15.7827	14.262	13.0782	11.8978	11.0223	10.3418	9.77636	9.11774	8.65902	8.22207	7.82664	7.55153	7.22293	6.93201	6.70414	6.32286	6.14953	5.98576	5.88863	5.79395	5.66561	5.60699	5.56236	5.51766	5.46716	5.39515	5.25115	5.1313	5.06976	5.04899	5.11871	5.09093	5.08737	5.08568	5.0878	5.06357	5.07914	5.08355	5.06025	5.04921	5.0538	4.98558	4.91731	4.84064	4.75142	4.64115	4.56217	4.52174	4.48834	4.46184	4.43628	4.4158	4.42957	4.4124	4.40064	4.38578	4.3719	4.3382	4.31129	4.29098	4.2702	4.26546	4.26016	4.25147	4.21973	4.20853	4.19664	4.18333	4.15371	4.12465	4.09354	4.06413	4.03584	4.00989	3.98361	3.96115	3.93701	3.91599	3.86936	3.82451	3.8073	3.82228	3.81998	3.79145	3.74646	3.70551	3.6688	3.6365	3.60775	3.60349	3.58757	3.58365	3.5802	3.58366	3.58908	3.59749	3.61144	3.59467	3.62369	3.66363	3.70746	3.75228	3.80008	3.85081	3.88603	3.8927	3.90593	3.91959	3.92581	3.93645	3.93909	3.94036	3.94537	3.92729	3.8996	3.90276	3.91455	3.93129	3.95036	3.96916	3.98314	4.00705	4.02693	4.03974	4.0382	4.02874	3.9828	3.945	3.9033	3.86645	3.83205	3.80027	3.76934	3.74211	3.74985	3.73122	3.72806	3.73041	3.71736	3.70471	3.69224	3.7148	3.73158	3.74272	3.75822	3.77109	3.78843	3.79663	3.79942	3.7974	3.79905	3.77972	3.77018	3.74356	3.71839	3.67186	3.66499	3.71719	3.73418	3.774	3.77101	3.78944	3.79441	3.81655	3.81635	3.81173	3.80398	3.78876	3.76306	3.69939	3.59023	3.57537	3.56653	3.55661	3.55353	3.54912	3.62907	3.65087	3.68082	3.70713	3.73656	3.7674	3.79164	3.81765	3.83606	3.85722	3.86977	3.88493	3.8909	3.8973	3.84543	3.82581	3.81312	3.79607	3.77783	3.75696	3.73296	3.70806	3.67762	3.64723	3.60918	3.57537	3.52579	3.47448	3.41538	3.35334	3.30424	3.27156	3.64806	3.66868	3.64322	3.60962	3.56552	3.53342	3.49278	3.45732	3.4366	3.43568	3.47673	3.50427	3.50372	3.43783	3.43059	3.44923	3.46667	3.48236	3.50104	3.52102	3.53659	3.54684	3.55483	3.56727	3.57895	3.5889	3.59855	3.60717	3.61567	3.61402	3.58401	3.56402	3.54112	3.51376	3.51227	3.52047	3.56463	3.59539	3.62402	3.66626	3.69412	3.70216	3.70908	3.71594	3.72186	3.72665	3.73159	3.7345	3.73846	3.73955	3.74297	3.73917	3.74308	3.73145	3.72201	3.7102	3.69715	3.68792	3.67828	3.67236	3.66818	3.66541	3.66611	3.66595	3.67266	3.6723	3.67621	3.67864	3.68174	3.70107	3.74666	3.74874	3.68854	3.604	3.61051	3.44134	3.18571	3.36731	3.46127	3.58189	3.69354	3.82312	3.94237	4.0347	4.0788	4.07252	4.06135	4.0602	4.05281	4.01821	3.98294	3.94484	3.89829	3.84377	3.72888	3.63319	3.55022	3.4847	3.52656	3.57505	3.63017	3.69294	3.75291	3.81427	3.876	3.86982	3.87071	3.83537	3.84419	3.84077	3.84443	3.83704	3.80932	3.78106	3.78041	3.75483	3.73173	3.68542	3.61579	3.54486	3.47998	3.41009	3.35258	3.26114	3.22029	3.19074	3.19491	3.22177	3.25737	3.29796	3.34841	3.40224	3.45379	3.51426	3.57445	3.63551	3.6937	3.72557	3.71897	3.74588	3.76358	3.76097	3.75987	3.75947	3.76162	3.76281	3.78356	3.79504	3.80091	3.80652	3.81162	3.8126	3.81312	3.80486	3.80301	3.79295	3.77963	3.76204	3.74176	3.71352	3.56412	3.56194	3.58126	3.64397	3.62438	3.5996	3.57216	3.54722	3.52501	3.50591	3.49329	3.49048	3.49369	3.50988	3.52288	3.54364	3.59739	3.64586	3.72194	3.79305	3.84152	3.84055	3.82773	3.83143	3.83352	3.83773	3.84117	3.84622	3.13439	3.59918	3.61182	3.61921	3.63109	3.63685	3.64289	3.64584	3.64824	3.65022	3.65231	3.65577	3.65367	3.65166	3.64884	3.63133	3.67685	3.71183	3.73896	3.74055	3.73873	3.71726	3.70036	3.68145	3.6691	3.63005	3.63844	3.63326	3.57099	3.51628	3.41429	3.27057	3.16975	3.10019	3.12194	3.14312	3.16641	3.19797	3.22478	3.26001	3.2953	3.13578	3.04093	3.11883	3.29543	3.44667	3.45164	3.45063	3.47639	3.46507	3.48359	3.51527	3.55161	3.6034	3.65741	3.7249	3.7899	3.85867	3.9204	3.98695	3.94298	3.9018	3.84777	3.79511	3.74211	3.70086	3.63113	3.6355	3.64198	3.66598	3.67273	3.64074	3.62454	3.60203	3.60775	3.66816	3.70803	3.77173	3.89527	4.00646	4.03858	4.03329	3.96515	3.93056	3.84784	3.759	3.68086	3.60987	3.55544	3.5139	3.48233	3.4642	3.42512	3.3936	3.39266	3.38533	3.39779	3.43022	3.45888	3.49465	3.53914	3.59629	3.64732	3.70428	3.71167	3.55131	3.38563	3.24025	3.32525	3.423	3.66744	3.75128	3.69463	3.62837	3.61597	3.74864
