Acq. time (s)=	4
Accumulations=	3
Range=	Off
Autofocus=	At all XY pixels
SWIFT=	Off
AutoExposure=	Off
Spike filter=	Multiple accum.
Delay time (s)=	0
Binning=	1
Readout mode=	Signal
DeNoise=	Standard
ICS correction=	On
Dark correction=	Off
Inst. Process=	Off
Instrument=	LabRAM S3000
Detector=	Synapse
Objective=	x100
Grating=	1800
ND Filter=	25%
Laser (nm)=	632.81 
Spectro (cm-¹)=	521.228
Slit=	100.021
Hole=	199.981
Microscope=	Principal
StageXY=	Märzhauser
StageZ=	Märzhauser
Z (µm)=	-162.7
Project=	
Sample=	
Site=	
Title=	SOP_200nm_furu_p0.1
Remark=	
Date=	14.06.2019 10:43
Operator=	
Acquired=	14.06.2019 10:43:01
		358.285	358.609	358.934	359.26	359.585	359.909	360.235	360.56	360.886	361.21	361.535	361.859	362.185	362.51	362.834	363.16	363.485	363.809	364.135	364.459	364.784	365.108	365.434	365.758	366.083	366.407	366.733	367.057	367.381	367.705	368.03	368.355	368.68	369.004	369.328	369.652	369.978	370.302	370.626	370.95	371.274	371.598	371.923	372.248	372.572	372.896	373.22	373.544	373.868	374.192	374.516	374.84	375.164	375.49	375.813	376.137	376.461	376.785	377.109	377.433	377.757	378.081	378.404	378.728	379.052	379.376	379.699	380.023	380.347	380.671	380.994	381.318	381.642	381.965	382.288	382.611	382.935	383.258	383.582	383.906	384.229	384.553	384.876	385.2	385.522	385.845	386.169	386.492	386.816	387.139	387.463	387.785	388.108	388.431	388.755	389.078	389.402	389.723	390.047	390.37	390.693	391.015	391.338	391.662	391.985	392.307	392.63	392.953	393.276	393.598	393.921	394.244	394.566	394.889	395.212	395.535	395.857	396.18	396.503	396.825	397.148	397.471	397.792	398.115	398.437	398.76	399.083	399.404	399.727	400.049	400.372	400.694	401.016	401.339	401.66	401.983	402.304	402.627	402.95	403.271	403.594	403.915	404.238	404.559	404.882	405.203	405.526	405.847	406.17	406.491	406.814	407.135	407.456	407.778	408.1	408.422	408.743	409.066	409.387	409.708	410.03	410.351	410.674	410.995	411.316	411.638	411.959	412.282	412.602	412.923	413.246	413.567	413.888	414.21	414.531	414.852	415.174	415.495	415.815	416.136	416.458	416.779	417.1	417.421	417.743	418.064	418.384	418.705	419.027	419.348	419.668	419.989	420.311	420.632	420.952	421.273	421.593	421.914	422.236	422.556	422.877	423.197	423.518	423.838	424.16	424.481	424.801	425.121	425.442	425.762	426.083	426.403	426.723	427.044	427.365	427.686	428.006	428.326	428.647	428.967	429.287	429.607	429.927	430.248	430.568	430.888	431.208	431.528	431.848	432.169	432.489	432.809	433.129	433.449	433.769	434.088	434.408	434.728	435.048	435.368	435.688	436.008	436.327	436.647	436.967	437.287	437.606	437.926	438.245	438.565	438.885	439.205	439.523	439.843	440.163	440.483	440.802	441.121	441.44	441.76	442.08	442.4	442.718	443.037	443.357	443.677	443.995	444.315	444.634	444.954	445.272	445.591	445.911	446.229	446.549	446.868	447.186	447.506	447.825	448.143	448.463	448.782	449.1	449.419	449.739	450.057	450.376	450.695	451.013	451.333	451.65	451.97	452.288	452.607	452.926	453.244	453.563	453.881	454.2	454.518	454.837	455.155	455.474	455.792	456.111	456.428	456.748	457.065	457.384	457.702	458.021	458.338	458.658	458.975	459.294	459.612	459.929	460.248	460.566	460.884	461.202	461.519	461.838	462.156	462.475	462.792	463.109	463.428	463.746	464.063	464.382	464.699	465.016	465.335	465.652	465.97	466.288	466.606	466.923	467.242	467.559	467.876	468.193	468.512	468.829	469.146	469.463	469.782	470.099	470.416	470.733	471.05	471.369	471.686	472.003	472.32	472.637	472.954	473.272	473.589	473.906	474.223	474.54	474.857	475.174	475.492	475.809	476.126	476.442	476.759	477.076	477.393	477.71	478.026	478.343	478.66	478.977	479.293	479.61	479.928	480.245	480.562	480.878	481.195	481.512	481.828	482.145	482.461	482.777	483.093	483.41	483.726	484.043	484.359	484.676	484.992	485.309	485.625	485.942	486.258	486.575	486.889	487.206	487.522	487.839	488.155	488.471	488.788	489.104	489.419	489.735	490.051	490.368	490.684	490.999	491.315	491.631	491.947	492.264	492.578	492.895	493.211	493.527	493.842	494.158	494.474	494.79	495.104	495.421	495.737	496.051	496.367	496.683	496.998	497.314	497.63	497.944	498.26	498.576	498.891	499.206	499.522	499.837	500.153	500.469	500.783	501.099	501.413	501.729	502.043	502.359	502.675	502.989	503.305	503.619	503.935	504.249	504.565	504.879	505.195	505.509	505.825	506.139	506.454	506.769	507.084	507.398	507.714	508.028	508.343	508.658	508.973	509.287	509.601	509.917	510.231	510.546	510.86	511.174	511.489	511.803	512.119	512.433	512.747	513.062	513.376	513.69	514.005	514.319	514.633	514.948	515.262	515.576	515.891	516.204	516.518	516.832	517.147	517.461	517.775	518.088	518.403	518.717	519.031	519.344	519.659	519.973	520.287	520.6	520.914	521.229	521.542	521.856	522.169	522.483	522.797	523.111	523.425	523.738	524.052	524.365	524.679	524.992	525.305	525.62	525.934	526.247	526.56	526.874	527.187	527.5	527.814	528.127	528.44	528.753	529.067	529.38	529.693	530.006	530.32	530.633	530.946	531.259	531.572	531.885	532.198	532.512	532.825	533.138	533.451	533.764	534.077	534.39	534.702	535.015	535.328	535.641	535.953	536.266	536.579	536.892	537.204	537.517	537.83	538.142	538.455	538.768	539.08	539.392	539.705	540.018	540.331	540.642	540.955	541.268	541.58	541.893	542.204	542.517	542.83	543.141	543.454	543.766	544.079	544.39	544.703	545.015	545.327	545.639	545.952	546.263	546.575	546.888	547.199	547.511	547.824	548.135	548.447	548.76	549.071	549.383	549.694	550.007	550.319	550.63	550.942	551.253	551.565	551.876	552.189	552.5	552.812	553.123	553.435	553.746	554.058	554.369	554.681	554.992	555.304	555.615	555.927	556.237	556.55	556.86	557.172	557.483	557.795	558.106	558.416	558.728	559.039	559.351	559.662	559.972	560.284	560.595	560.905	561.217	561.528	561.838	562.15	562.46	562.771	563.083	563.393	563.704	564.015	564.326	564.636	564.947	565.258	565.569	565.879	566.189	566.501	566.811	567.122	567.432	567.743	568.054	568.364	568.674	568.984	569.296	569.606	569.916	570.226	570.536	570.847	571.158	571.468	571.778	572.088	572.398	572.708	573.018	573.329	573.639	573.95	574.26	574.57	574.88	575.19	575.5	575.81	576.12	576.429	576.739	577.049	577.359	577.669	577.979	578.289	578.598	578.908	579.218	579.528	579.837	580.147	580.457	580.767	581.076	581.386	581.694	582.004	582.314	582.623	582.933	583.242	583.552	583.862	584.171	584.479	584.789	585.098	585.408	585.718	586.027	586.335	586.645	586.954	587.263	587.573	587.881	588.19	588.5	588.809	589.119	589.426	589.736	590.045	590.354	590.662	590.972	591.281	591.589	591.898	592.207	592.515	592.824	593.134	593.441	593.751	594.06	594.367	594.677	594.986	595.294	595.603	595.912	596.219	596.528	596.836	597.145	597.454	597.762	598.071	598.378	598.687	598.995	599.304	599.611	599.92	600.228	600.537	600.846	601.153	601.462	601.77	602.077	602.386	602.693	603.002	603.309	603.618	603.926	604.234	604.542	604.85	605.158	605.465	605.774	606.081	606.39	606.697	607.004	607.313	607.62	607.927	608.236	608.543	608.85	609.159	609.466	609.773	610.081	610.389	610.696	611.004	611.311	611.618	611.925	612.234	612.541	612.848	613.155	613.463	613.77	614.077	614.384	614.691	614.999	615.306	615.613	615.92	616.227	616.535	616.842	617.149	617.456	617.762	618.069	618.376	618.684	618.991	619.298	619.604	619.911	620.218	620.524	620.831	621.138	621.444	621.751	622.058	622.366	622.672	622.979	623.286	623.592	623.899	624.205	624.512	624.818	625.125	625.431	625.738	626.044	626.349	626.656	626.962	627.269	627.575	627.881	628.188	628.494	628.8	629.107	629.413	629.719	630.024	630.331	630.637	630.943	631.25	631.556	631.861	632.167	632.473	632.779	633.085	633.392	633.696	634.003	634.309	634.615	634.919	635.226	635.532	635.838	636.142	636.448	636.754	637.06	637.365	637.671	637.977	638.282	638.588	638.894	639.198	639.504	639.81	640.114	640.42	640.726	641.031	641.337	641.642	641.947	642.253	642.557	642.863	643.169	643.473	643.779	644.083	644.389	644.693	644.999	645.305	645.609	645.914	646.219	646.524	646.829	647.134	647.438	647.744	648.048	648.354	648.658	648.962	649.268	649.572	649.877	650.181	650.487	650.791	651.095	651.4	651.704	652.01	652.314	652.618	652.923	653.227	653.533	653.836	654.14	654.446	654.75	655.054	655.357	655.663	655.967	656.27	656.576	656.879	657.183	657.488	657.792	658.096	658.4	658.705	659.009	659.312	659.616	659.92	660.225	660.529	660.832	661.136	661.44	661.745	662.048	662.352	662.655	662.959	663.263	663.566	663.871	664.175	664.478	664.782	665.085	665.389	665.692	665.996	666.299	666.602	666.906	667.209	667.514	667.817	668.121	668.424	668.728	669.031	669.334	669.638	669.941	670.244	670.547	670.851	671.154	671.456	671.759	672.062	672.365	672.669	672.972	673.275	673.578	673.881	674.184	674.487	674.791	675.092	675.395	675.698	676.002	676.305	676.608	676.911	677.212	677.515	677.818	678.121	678.424	678.726	679.029	679.332
-20	-20	3.53362	3.73438	3.8585	4.02988	4.1415	4.22864	4.20763	4.1754	4.14757	4.11077	4.10236	4.0845	4.07389	4.07105	4.06712	4.05045	3.99427	4.0019	4.00791	4.02707	4.06235	4.08523	4.12372	4.15888	4.19219	4.22531	4.25889	4.28815	4.29845	4.28393	4.26428	4.2613	4.24142	4.22876	4.23971	4.28439	4.31769	4.36352	4.39451	4.4109	4.42466	4.44027	4.45135	4.46379	4.49527	4.4655	4.43741	4.37018	4.29392	4.20071	4.1206	4.02391	3.99346	3.85602	3.85846	3.86902	3.91693	3.9816	4.02615	4.09031	4.15929	4.2315	4.24552	4.20692	4.16041	4.11403	4.05571	3.98848	3.92192	3.87789	3.85638	3.865	3.89897	3.88215	3.88532	3.88884	3.84776	3.82144	3.82317	3.85511	3.901	3.96734	4.02524	4.0626	4.10424	4.1528	4.20216	4.23749	4.24155	4.24062	4.2473	4.24896	4.16359	4.03671	3.90148	3.88313	3.89592	3.93808	3.97522	4.10655	4.08099	4.04328	4.01028	3.97759	3.97115	3.96059	3.96464	3.94796	3.98795	4.02673	4.07078	4.11485	4.15763	4.19734	4.23409	4.25644	4.25998	4.26873	4.24101	4.21989	4.18816	4.15145	4.12317	4.09335	4.07111	4.04605	4.03183	4.0187	4.03883	4.05784	4.08272	4.11238	4.14326	4.17785	4.19737	4.2041	4.19404	4.16587	4.11695	4.02827	3.89329	3.74299	3.66159	3.62501	3.66312	3.83012	3.81758	3.81391	3.81216	3.90566	3.93902	3.99906	4.04112	4.0652	4.07761	4.07472	4.07295	4.06715	4.0446	4.02953	4.01782	4.00516	3.99549	3.98457	3.98658	3.99919	3.99519	4.05076	4.09981	4.18683	4.26327	4.3196	4.2955	4.32017	4.30519	4.29734	4.2861	4.27892	4.27426	4.26128	4.24916	4.2551	4.17845	4.10431	4.04396	4.04119	4.12617	4.20424	4.26464	4.3326	4.38591	4.38616	4.46571	4.4807	4.42326	4.32704	4.21649	4.10022	4.05607	4.06067	4.10469	4.15489	4.38445	4.35598	4.33424	4.30856	4.29871	4.27259	4.24057	4.18291	4.15267	4.12842	4.11634	4.11551	4.12517	4.13507	4.17451	4.23144	4.29734	4.37027	4.40363	4.43874	4.47078	4.49205	4.39374	3.55458	3.77575	3.79221	3.85798	3.89273	4.33036	4.44691	4.40979	4.37627	4.33182	4.20497	4.25891	4.21222	4.16292	4.13279	4.10849	4.09244	4.08128	4.05865	4.03269	4.03895	4.04715	4.05616	4.06107	4.07021	4.08718	4.10771	4.12048	4.13186	4.11736	4.09263	4.06228	4.05049	4.04252	4.05452	4.07914	4.10859	4.13421	4.13185	4.13196	4.16845	4.19632	4.25633	4.30605	4.35338	4.38484	4.39018	4.39408	4.38145	4.38203	4.37315	4.37487	4.37124	4.3597	4.32074	4.32158	4.30749	4.26288	4.21108	4.16113	4.05928	3.99846	3.95113	3.89966	3.86416	3.86673	3.84515	3.84746	3.86499	3.88527	3.93487	3.93115	3.9321	3.9271	3.92704	3.92162	3.92075	3.8862	3.86095	3.83465	3.836	3.83964	3.8433	3.85661	3.86853	3.88822	3.90359	3.92607	3.99708	4.00951	4.03808	4.04426	4.05476	4.05155	4.04627	4.03827	4.03215	4.02409	4.01788	4.00992	4.00363	3.98691	3.97839	3.97954	3.9747	3.97656	3.97769	3.96789	3.97929	3.99603	4.01351	4.04551	4.06689	4.09019	4.10222	4.09377	4.08939	4.08153	4.07592	4.06942	4.0634	4.05867	4.05299	4.04934	4.05747	4.05758	4.05766	4.05894	4.06021	4.06439	4.06847	4.07189	4.07599	4.08665	4.10017	4.13647	4.16467	4.19315	4.20177	4.28165	4.31762	4.35724	4.39418	4.42289	4.45131	4.47645	4.49195	4.4537	4.45019	4.43913	4.43078	4.42156	4.39614	4.35161	4.30424	4.25607	4.21031	4.18057	4.1499	4.12094	4.09464	4.07209	4.04263	4.00712	4.00595	3.95695	3.94313	3.93112	3.92118	3.92029	3.9473	4.01249	4.03215	4.06189	4.08539	4.11391	4.13988	4.16496	4.18988	4.21488	4.23914	4.26598	4.28327	4.27234	4.29146	4.3252	4.35798	4.39385	4.43071	4.43598	4.44487	4.44598	4.41209	4.38177	4.37074	4.35093	4.35294	4.35263	4.36634	4.26917	4.2017	4.32844	4.42552	4.45001	4.48597	4.52449	4.56356	4.6021	4.60947	4.58964	4.42937	4.33332	4.18189	4.09573	4.05001	4.03633	4.04637	4.03799	4.07118	4.1257	4.18764	4.26363	4.34037	4.42218	4.42402	4.41549	4.41406	4.40984	4.41648	4.41757	4.43568	4.44841	4.4824	4.5205	4.52248	4.55637	4.57782	4.64876	4.73563	4.8081	4.86975	4.93409	5.01957	5.11068	5.21965	5.31515	5.48944	5.63831	5.81122	6.01377	6.2025	6.39817	6.42595	6.5781	6.75209	6.91452	7.1067	7.34375	7.6147	8.04009	8.41225	8.87748	9.29512	9.88792	10.5283	11.4041	12.477	13.8655	15.4353	17.2412	19.5787	22.3741	26.0282	30.4213	38.7735	45.7459	58.307	72.2873	79.1502	91.7908	95.6673	90.4707	73.2943	68.3885	53.8634	43.9284	36.9152	28.3446	25.546	19.8762	17.5182	15.3295	14.1499	13.5265	12.4104	11.4372	10.795	9.7802	9.21499	8.72188	8.30851	7.91341	7.52188	7.22821	6.99034	6.84518	6.63644	6.45839	6.27425	6.11664	5.95765	5.81717	5.6906	5.58318	5.4856	5.444	5.33213	5.23115	5.10914	5.06876	5.03546	5.00266	4.9686	4.89794	4.95034	4.97259	4.98572	4.98266	4.97929	4.95321	4.91909	4.84696	4.75302	4.63081	4.47242	4.2864	4.087	3.88417	3.71278	3.60216	3.5549	3.56709	3.62194	3.70422	3.80054	3.87931	3.94917	4.00621	4.05801	4.10012	4.10607	4.09067	4.07566	4.05838	4.04305	4.0449	4.04149	4.0442	4.05548	4.0865	4.12529	4.16281	4.21331	4.26696	4.27765	4.2471	4.19445	4.126	4.06683	4.04814	4.08782	4.13251	4.11865	3.97572	3.85577	3.82325	3.78504	3.77033	3.77039	3.78286	3.82671	3.83372	3.83319	3.84868	3.86557	3.84085	3.81831	3.79839	3.7703	3.76161	3.7582	3.75889	3.81811	3.83394	3.83106	3.88574	3.89599	3.89645	3.89114	3.88004	3.85485	3.82813	3.81282	3.79823	3.80061	3.81471	3.84563	3.89214	3.95016	4.0143	4.08687	4.15725	4.20061	4.20023	3.79664	3.93564	3.89856	3.84254	3.75464	3.6708	3.76623	3.8005	3.82294	3.70048	3.60553	3.53024	3.46789	3.41239	3.46707	3.47545	3.48052	3.49938	3.5229	3.53731	3.57185	3.60604	3.64289	3.67981	3.71784	3.72414	3.73567	3.75475	3.78894	3.82851	3.87821	3.91663	3.91798	3.92144	3.92555	3.92896	3.90417	3.87986	3.85289	3.82143	3.78731	3.7377	3.6789	3.61497	3.49796	3.49744	3.49754	3.50275	3.59651	3.65745	3.69793	3.72316	3.74617	3.7683	3.78513	3.80342	3.79864	3.80047	3.80741	3.81392	3.82141	3.826	3.83217	3.83485	3.83991	3.84304	3.84728	3.85295	3.85658	3.86289	3.86581	3.86176	3.85333	3.84971	3.84857	3.84515	3.84339	3.84123	3.83947	3.83913	3.83884	3.83114	3.84562	3.84426	3.82405	3.81981	3.8084	3.7876	3.75184	3.71114	3.67211	3.62636	3.59513	3.52876	3.54039	3.55617	3.5781	3.60083	3.68815	3.70535	3.72584	3.74966	3.7703	3.79307	3.81251	3.83292	3.85218	3.86856	3.85988	3.86888	3.88914	3.89516	3.89759	3.89805	3.89956	3.89733	3.89659	3.89186	3.88931	3.88218	3.87991	3.87188	3.86233	3.85379	3.85112	3.82997	3.80944	3.78732	3.75923	3.73798	3.70482	3.68546	3.6601	3.63602	3.6361	3.62765	3.62532	3.62923	3.726	3.76195	3.8023	3.84414	3.87816	3.90782	3.93546	3.94748	3.96775	3.63101	3.75616	3.87859	3.94685	3.98541	3.97358	3.95327	3.92539	3.88738	3.84957	3.81537	3.77973	3.74837	3.71542	3.67509	3.66158	3.63201	3.61297	3.63178	3.68006	3.70226	3.73825	3.765	3.7874	3.81374	3.84073	3.85163	3.86276	3.87092	3.87718	3.83543	3.79278	3.75581	3.70365	3.65954	3.6133	3.56657	3.5244	3.48346	3.44744	3.39265	3.33921	3.33117	3.33622	3.35248	3.38368	3.44913	3.5797	3.71513	3.80663	3.90475	4.00954	4.04769	4.05881	4.06492	4.00742	4.00383	3.9685	3.93696	3.87976	3.8054	3.73777	3.70159	3.718	3.75549	3.78657	3.87132	3.94776	4.03039	4.08437	4.15469	4.18334	4.17383	4.17263	4.163	4.15535	4.09847	4.00909	3.95256	3.85609	3.76954	3.63286	3.56339	3.51099	3.4804	3.46129	3.45767	3.45719	3.45441	3.46608	3.48023	3.48263	3.50261	3.5274	3.55246	3.58336	3.61704	3.6356	3.62629	3.6183	3.61113	3.60509	3.60201	3.59202	3.59064	3.58639	3.58787	3.58857	3.59763	3.60617	3.62078	3.63201	3.64193	3.65652	3.66964	3.68432	3.69787	3.65081	3.30811	3.39338	3.5041	3.59717	3.72551	3.71622	3.63005	3.61906	3.66668	3.7197	3.79722	3.88635	3.91517	3.92191	3.87641	3.83227	3.79587	3.77143	3.85168	4.21408	4.27194	4.26154	4.26236	4.25928	4.25308	4.23709	4.18931	4.06671	3.93325	3.84864	3.78414	3.69921	3.74315	3.76651	3.7553	3.74628	3.72272	3.73131	3.7669	3.79462	3.82499	3.84637	3.87765	3.88345	3.88285	3.88465	3.88069	3.87907	3.87559	3.87295	3.87016	3.84721	3.80782	3.7648	3.72697	3.68649	3.65377	3.62047	3.57533	3.56894	3.59786	3.61593	3.64342	3.67734	3.70887	3.74503	3.78865	3.82315	3.86208	3.91293	3.93306	3.93976	3.94425	3.94723	3.9245	3.91763	3.9036	3.89362	3.87328	3.85406	3.83935	3.82167	3.81257	3.80239	3.80362	3.80994	3.82489	3.83192	3.86738	3.91246	3.95128	3.97693	3.99649	3.99435	3.8306	3.8151	3.78231	3.48353	2.9831	3.39924	3.48144	3.38619	3.3824	3.40773	3.48685	3.61011	3.75792	3.81413	3.8679	3.91026	3.90724	3.89281	3.84078	3.69403	3.51588	3.33246	3.23088	3.35721	3.44515	3.60746
-20	0	4.38415	4.45994	4.50699	4.4851	4.45562	4.42938	4.40079	4.38764	4.36213	4.34253	4.34566	4.34473	4.34769	4.34799	4.34494	4.34562	4.34848	4.35038	4.35366	4.35649	4.35998	4.35404	4.29898	4.18188	4.05323	3.9171	3.8165	3.77109	3.83046	3.93691	4.02444	4.15522	4.2674	4.29597	4.31004	4.29183	4.26815	4.24341	4.21201	4.17154	4.13618	4.09571	4.0582	4.01765	3.97832	3.94131	3.90129	3.87052	3.82708	3.81664	3.83686	3.90103	3.94284	3.98601	4.02906	4.07631	4.12993	4.18	4.17867	4.15677	4.07247	4.0072	3.90518	3.86113	4.0104	4.06876	4.10045	4.09528	4.06698	4.05889	4.10028	4.18742	4.20931	4.23021	4.23808	4.22902	4.18191	4.09491	4.03343	3.94959	3.85733	3.77806	3.72326	3.66374	3.64584	3.63055	3.64062	3.60429	3.62564	3.72214	3.82048	3.90103	3.93551	3.98643	4.02705	4.07789	4.17392	4.19903	4.26504	4.31208	4.28966	4.26118	4.22849	4.2014	4.17413	4.16317	4.14894	4.1338	4.12542	4.05938	3.97167	3.85399	3.80777	3.77544	3.74937	3.76526	3.77258	3.8053	3.90915	3.96834	3.98251	4.0182	4.06506	4.09609	4.14172	4.15458	4.16006	4.13955	4.13975	4.13608	4.14691	4.18944	4.18841	4.18929	4.15538	4.13709	4.13843	4.15155	4.17803	4.21317	4.21922	4.22627	4.23615	4.24537	4.2561	4.26818	4.22732	4.20385	4.18096	4.17362	4.16074	4.08932	4.02216	3.95222	3.89021	3.85718	3.89569	3.91349	3.95294	3.99391	4.04747	4.02418	4.01718	4.05975	4.10634	4.16951	4.26465	4.31801	4.38248	4.35408	4.37438	4.3462	4.31126	4.33192	4.32688	4.3208	4.31664	4.2915	4.24708	4.1185	3.95751	3.86912	3.84194	3.8937	3.99783	4.13787	4.26352	4.37722	4.46832	4.46574	4.45736	4.45044	4.41271	4.38881	4.36877	4.33664	4.31342	4.29022	4.24374	4.23512	4.22802	4.22428	4.22712	4.2289	4.25394	4.2699	4.29518	4.31437	4.33987	4.35556	4.32771	4.28981	4.2331	4.16471	4.13579	4.14517	4.16213	4.17551	4.20446	4.24263	4.30763	4.3269	4.30903	4.29644	4.29765	4.31603	4.3329	4.3337	4.29588	4.28079	4.26759	4.22922	4.19435	4.16355	4.10858	3.99876	3.81565	3.70531	3.6073	3.5517	3.50379	3.45222	3.51057	3.54662	3.55905	3.64703	3.75068	3.83305	3.95313	4.05054	4.12775	4.17471	4.23855	4.25962	4.2676	4.24504	4.28885	4.26299	4.22205	4.15293	4.0056	3.78479	3.66294	3.5972	3.62304	3.6899	3.76337	3.8033	3.86	3.89692	3.99183	4.13609	4.26455	4.29759	4.29096	4.26814	4.22034	4.22455	4.2721	4.25488	4.23227	4.21744	4.2217	4.24942	4.27901	4.29933	4.27613	4.19731	4.18767	4.18776	4.18094	4.17705	4.17656	4.1783	4.18899	4.18054	4.1514	4.12451	4.0978	4.07454	4.03476	3.99392	3.9536	3.89153	3.83032	3.79245	3.75753	3.72164	3.73161	3.74927	3.8443	3.82011	3.79715	3.80821	3.80445	3.81759	3.82051	3.83212	3.84636	3.84581	3.84694	3.86334	3.85679	3.84531	3.82177	3.76809	3.73874	3.70361	3.73127	3.75707	3.77276	3.79976	3.80413	3.88548	3.91424	3.93409	3.93419	3.95374	3.93879	3.91309	3.90313	3.92034	3.94775	3.94498	3.99334	4.04025	4.07785	4.10852	4.09891	4.08682	4.07684	4.06604	4.05602	4.04698	4.04014	3.98679	3.91183	3.84704	3.76945	3.74515	3.76237	3.80992	3.8259	3.85128	3.80965	3.73261	3.70762	3.71794	3.76023	3.79261	3.81449	3.83681	3.867	3.89053	3.90024	3.91385	4.02666	4.06576	4.12238	4.16182	4.19815	4.19756	4.15176	4.06202	3.93275	3.8621	3.84424	3.82919	3.83643	3.85772	3.92069	3.98936	4.0775	4.1643	4.22254	4.2475	4.26336	4.26948	4.27488	4.27662	4.26205	4.14102	4.039	3.95135	3.76362	3.69013	3.6327	3.67607	3.75778	3.91349	4.08944	4.24228	4.3426	4.38533	4.34389	4.29962	4.23375	4.19474	4.15791	4.12397	4.11431	4.0983	4.10908	4.16537	4.20897	4.2542	4.30628	4.3623	4.42161	4.48319	4.54424	4.57308	4.58446	4.59697	4.6055	4.61087	4.61476	4.57843	4.53365	4.47845	4.4382	4.41602	4.37131	4.37986	4.38952	4.44042	4.50621	4.59531	4.70344	4.7734	4.86788	4.94421	5.03202	5.17162	5.29591	5.44105	5.48406	5.41068	5.44726	5.58683	5.63944	5.69847	5.76767	5.81873	5.86475	5.94245	6.05198	6.17614	6.30991	6.50619	6.73042	7.01393	7.06972	7.16185	7.29064	7.74702	8.39425	8.83517	9.0906	9.35223	9.59309	9.87962	10.1491	10.4955	10.8551	11.2746	11.5702	12.9886	14.5286	15.5365	16.8878	19.0593	21.4696	24.6342	28.746	34.1735	40.7164	48.0648	57.5592	72.2646	91.3738	110.559	133.702	156.54	167.737	165.345	141.965	121.076	99.1941	79.7986	64.8681	52.563	42.8304	36.7628	30.5656	26.6598	23.1252	20.6881	19.3845	17.798	16.4208	15.0314	13.8224	12.7232	11.8209	11.0176	10.3361	9.71467	8.9837	8.48575	8.09919	7.7704	7.48674	7.15689	6.93596	6.75242	6.59224	6.44746	6.27182	6.13873	6.00584	5.89779	5.79629	5.71345	5.66887	5.586	5.45779	5.34036	5.20027	5.18071	5.16681	5.14768	5.06905	5.02263	5.00944	5.00602	5.05209	4.97986	4.85831	4.79364	4.74351	4.721	4.73419	4.711	4.70798	4.70258	4.71597	4.74037	4.78009	4.83883	4.85441	4.81198	4.76823	4.67832	4.48641	4.43776	4.46677	4.53524	4.58126	4.63405	4.6732	4.66689	4.58587	4.47394	4.42585	4.27095	4.22226	4.23069	4.28761	4.25379	4.22904	4.21001	4.22195	4.21183	4.19345	4.16789	4.11847	4.04639	3.98945	3.94527	3.88981	3.83499	3.75432	3.69137	3.69491	3.67199	3.69169	3.73521	3.79865	3.88077	3.95982	4.02708	4.09341	4.13962	4.14586	4.11728	4.08565	4.04701	4.02254	3.99743	3.96088	3.89118	3.82023	3.78249	3.77322	3.72687	3.69109	3.65156	3.614	3.59951	3.56892	3.53755	3.53995	3.55114	3.53948	3.5344	3.53267	3.54461	3.56916	3.59682	3.62312	3.60549	3.58342	3.59477	3.60707	3.61769	3.62325	3.62757	3.64336	3.65773	3.66918	3.66331	3.64936	3.62979	3.66393	3.74132	3.8046	3.81386	3.80985	3.82273	3.80382	3.82715	3.85691	3.8123	3.83265	3.82997	3.83592	3.85873	3.84084	3.79885	3.7386	3.73124	3.73027	3.72925	3.73744	3.79302	3.71233	3.52749	3.54471	3.72077	3.82746	3.9304	3.9627	3.98407	3.97626	3.81897	3.76197	3.71296	3.67551	3.63245	3.6043	3.55611	3.46799	3.45096	3.44463	3.51278	3.59215	3.64537	3.65282	3.69995	3.83507	3.8842	3.82981	3.78667	3.74103	3.69809	3.65478	3.68213	3.66993	3.65406	3.56529	3.50937	3.50926	3.50533	3.50128	3.53843	3.52686	3.5285	3.54604	3.5337	3.54193	3.52083	3.50157	3.54233	3.63784	3.65603	3.67384	3.68905	3.6457	3.62411	3.5977	3.60704	3.6543	3.67272	3.65375	3.62033	3.58475	3.5534	3.52384	3.49011	3.47471	3.46684	3.54276	3.61219	3.69233	3.78119	3.77574	3.74556	3.71443	3.73592	3.76614	3.77796	3.74654	3.69492	3.63471	3.55707	3.48324	3.41096	3.31687	3.24872	3.21766	3.18133	3.18313	3.19962	3.27372	3.33676	3.45713	3.52277	3.61717	3.63456	3.64586	3.60427	3.49428	3.3154	3.30761	3.30843	3.35495	3.42879	3.4554	3.47976	3.51669	3.56966	3.63215	3.70462	3.76208	3.78385	3.81948	3.85536	3.87915	3.89206	3.85363	3.79687	3.70447	3.58707	3.46122	3.26575	3.17104	3.0641	3.01614	3.06036	3.10907	3.15913	3.26193	3.36108	3.47792	3.64858	3.79241	3.88958	3.95563	4.05273	4.12005	4.16072	4.16552	4.13869	4.1006	4.06142	4.0235	3.97665	3.94906	3.91612	3.88361	3.83283	3.83992	3.88951	3.92778	3.96245	3.98317	3.99024	3.94081	3.9098	3.85723	3.85472	3.84291	3.80702	3.78701	3.76044	3.73832	3.74121	3.73172	3.65767	3.63166	3.71114	3.76163	3.81671	3.9439	4.00577	4.03691	3.95328	3.95781	3.98301	3.98939	4.01508	4.01729	3.99791	3.96054	3.9232	3.83213	3.7816	3.73252	3.69534	3.71936	3.68637	3.68647	3.72235	3.85113	3.95112	4.1164	4.13243	4.13069	4.12598	4.12228	4.1163	4.11222	4.10739	4.10327	4.09621	4.0948	4.08772	4.08688	4.07766	4.02477	3.98522	3.93367	3.87624	3.8086	3.72951	3.70174	3.63714	3.56978	3.55814	3.57015	3.63259	3.63588	3.72676	3.8251	3.91077	3.9645	3.9789	3.95755	3.93234	3.85865	3.78767	3.76826	3.7278	3.70224	3.72094	3.74862	3.73667	3.72205	3.71051	3.70857	3.7099	3.68338	3.69394	3.71062	3.85691	3.93581	3.9774	4.00529	4.05966	4.0557	4.02157	3.99413	4.00047	3.91543	3.78466	3.65424	3.51503	3.39565	3.37635	3.35827	3.38538	3.38731	3.42347	3.43696	3.52664	3.64027	3.74911	3.78989	3.91316	3.98788	4.09652	4.16517	4.19176	4.21549	4.04504	3.65629	2.80303	3.01135	3.69104	4.00633	4.06326	3.99404	3.88161	3.71709	3.54888	3.32173	3.16707	3.13885	3.08727	3.2383	3.32666	3.39871	3.57247	3.6418	3.67693	3.68245	3.69823	3.70944	3.71185	3.72348	3.73451	3.74429	3.73502	3.70576	3.6922	3.66063	3.66208	3.69342	3.71306	3.73303	3.79472	3.88442	3.89544	3.85387	3.81393	3.77175	3.78177	3.79755	3.77055	3.75656	3.74499	3.7408	3.77388	3.79486	3.83065	3.85995	3.88702	3.89458	3.89752	3.90717	3.91487	3.93805	3.97903	3.99498	3.99099	3.97352	3.96249	3.9373	3.9	3.87076	3.88241	3.85146	3.81426	3.74691	3.70714	3.65688	3.60656	3.58826	3.57287	3.61667	3.51651	3.45951	3.67048
-20	20	3.35486	3.78327	4.07454	4.3434	4.4892	4.60194	4.68846	4.75178	4.80079	4.79823	4.79021	4.78056	4.75947	4.75145	4.73675	4.68896	4.66582	4.6616	4.66091	4.66319	4.67509	4.68996	4.66959	4.63771	4.56645	4.45533	4.34961	4.2474	4.14973	4.06809	3.99625	3.93465	3.91975	3.92953	3.85567	3.96426	4.09412	4.24871	4.39075	4.39535	4.38811	4.38138	4.34	4.30116	4.26969	4.24275	4.2178	4.19463	4.18796	4.19569	4.19808	4.22801	4.30139	4.35933	4.43961	4.50544	4.59972	4.67214	4.68776	4.67551	4.63787	4.60678	4.55838	4.52282	4.4838	4.45247	4.41614	4.38983	4.37517	4.36358	4.35558	4.31278	4.25633	4.21941	4.21419	4.20614	4.20198	4.20344	4.20051	4.20043	4.22273	4.25276	4.28301	4.31625	4.35214	4.38639	4.42188	4.4339	4.44991	4.46052	4.47587	4.46954	4.47029	4.44553	4.41869	4.38375	4.32088	4.28106	4.26395	4.24228	4.22792	4.19046	4.19001	4.19437	4.20272	4.23693	4.26436	4.29508	4.32647	4.34419	4.37049	4.39496	4.42053	4.44354	4.46861	4.49058	4.51388	4.51941	4.52321	4.53771	4.54708	4.56312	4.57691	4.59321	4.6086	4.62757	4.62849	4.62796	4.63667	4.6644	4.66737	4.64211	4.6055	4.5666	4.523	4.49273	4.47897	4.46837	4.43312	4.41175	4.39252	4.42092	4.41549	4.41603	4.42353	4.42351	4.39929	4.38161	4.34629	4.32809	4.29854	4.16586	4.14005	4.11679	4.09784	4.17941	4.13448	4.11372	4.11248	4.09341	4.11083	4.11575	4.15183	4.18892	4.23491	4.28322	4.32356	4.32853	4.32043	4.29888	4.26648	4.23309	4.19725	4.15283	4.07822	4.06994	4.0683	4.07868	4.09322	4.11395	4.12224	4.06604	4.07143	4.10695	4.16811	4.23159	4.30514	4.38912	4.45202	4.51238	4.55488	4.60534	4.65361	4.68996	4.73329	4.77289	4.80227	4.75078	4.71254	4.6698	4.62491	4.58036	4.53805	4.45204	4.35641	4.2673	4.17008	4.19599	4.2332	4.30557	4.38108	4.44497	4.53231	4.64617	4.70274	4.76463	4.80639	4.8287	4.81981	4.81655	4.77621	4.68287	4.60691	4.53057	4.45761	4.38945	4.31064	4.27217	4.27356	4.29894	4.34041	4.3836	4.43252	4.46267	4.49014	4.51768	4.54023	4.54214	4.5338	4.53497	4.52999	4.5336	4.50793	4.50972	4.51308	4.50489	4.49088	4.47593	4.51985	4.53839	4.54807	4.54319	4.53219	4.52118	4.50909	4.49138	4.49936	4.45187	4.38906	4.32988	4.26689	4.20236	4.14311	4.08213	4.02875	3.97682	3.926	3.89089	3.87286	3.87794	3.9578	4.01515	4.03839	4.08408	4.10639	4.16583	4.21764	4.25886	4.30068	4.34628	4.36991	4.37238	4.36868	4.36395	4.33397	4.31107	4.285	4.26224	4.25137	4.23947	4.23336	4.23013	4.23411	4.23215	4.23248	4.22616	4.22341	4.21382	4.20715	4.19557	4.18437	4.16993	4.15365	4.13576	4.11487	4.09361	4.0563	3.99227	3.99899	4.10282	4.173	4.23654	4.27816	4.27924	4.25646	4.23245	4.21764	4.16665	4.11486	4.07855	4.04547	3.99796	3.9601	3.92424	3.90657	3.89588	3.90841	3.93964	4.0005	3.98266	3.96266	3.94011	3.90035	3.91675	3.93505	3.96469	4.09349	4.08836	4.16444	4.26559	4.34986	4.37692	4.40335	4.38578	4.36949	4.33633	4.28644	4.25661	4.21634	4.18423	4.14295	4.11275	4.07072	4.05687	4.04572	3.99577	3.96911	3.91869	3.92879	3.93216	3.94301	3.95855	3.97904	3.99608	4.00971	4.02879	4.03816	4.05199	4.06667	4.08005	4.07711	4.0468	4.0522	4.05664	4.06003	4.09835	4.11005	4.12653	4.13591	4.10372	4.05497	3.98262	3.96979	3.95338	3.92569	3.94398	4.00841	4.06527	4.10604	4.11722	4.12885	4.13559	4.13021	4.15949	4.19173	4.241	4.28513	4.33038	4.37563	4.4155	4.4565	4.49022	4.52535	4.56902	4.60315	4.61242	4.61903	4.62512	4.60203	4.58011	4.55224	4.52276	4.49465	4.4676	4.43775	4.41356	4.39733	4.40109	4.39457	4.40883	4.39937	4.38539	4.36577	4.3351	4.33648	4.3494	4.3607	4.37725	4.41373	4.47526	4.51704	4.56024	4.60488	4.61833	4.62344	4.62262	4.64766	4.68768	4.80217	4.88398	4.93952	5.00192	5.06833	5.14052	5.22881	5.29878	5.33579	5.37884	5.42689	5.48183	5.54001	5.62153	5.70923	5.73817	5.77576	5.82002	5.87359	5.92406	6.02452	6.11869	6.20504	6.28312	6.38264	6.46926	6.57424	6.64983	6.71948	6.81076	6.90986	7.04813	7.25407	7.4696	7.71238	7.98561	8.35687	8.75676	9.17694	9.61162	10.088	10.5039	11.0696	11.6043	12.2396	12.6756	13.2756	14.2659	15.2425	16.5572	18.0705	19.8474	21.9357	24.4739	27.7406	31.8204	36.4899	42.5679	50.1911	62.2546	75.5326	91.7664	115.534	138.24	167.905	203.505	202.973	196.432	178.753	147.688	122.451	92.1316	74.1689	63.7363	49.8675	41.6157	35.6466	30.5581	26.1226	25.2444	22.9699	20.3867	18.4839	17.0889	16.0103	14.8041	13.7709	12.9257	12.3605	11.7039	11.1066	10.5631	10.0718	9.60626	9.23328	8.89643	8.58494	8.24053	7.90387	7.61893	7.34043	7.0947	6.88771	6.71902	6.60563	6.47659	6.33384	6.20965	6.08015	5.98525	5.89658	5.81911	5.74745	5.68091	5.62517	5.57276	5.52888	5.48768	5.44529	5.35129	5.29999	5.24659	5.19724	5.152	5.11105	5.07486	5.04316	5.01559	4.97817	4.94122	4.90658	4.87288	4.84223	4.81156	4.78318	4.75557	4.72677	4.70175	4.67501	4.65194	4.62913	4.60974	4.58939	4.58549	4.56711	4.55585	4.53934	4.52283	4.50161	4.4817	4.467	4.45481	4.44189	4.40377	4.37649	4.34863	4.32463	4.299	4.25569	4.20839	4.15893	4.15022	4.19062	4.20791	4.20251	4.20051	4.20018	4.20319	4.2075	4.21489	4.22336	4.23444	4.24632	4.26	4.27409	4.28921	4.26052	4.24007	4.18748	4.14636	4.0897	4.02605	3.93581	3.84965	3.81348	3.78539	3.76014	3.73906	3.72438	3.70908	3.79078	3.81413	3.84907	3.88026	3.89228	3.91481	3.91834	3.93407	3.88026	3.85738	3.84008	3.82371	3.81016	3.80177	3.79719	3.79966	3.81191	3.83362	3.87138	3.91564	3.9905	4.14301	4.25594	4.28422	4.21488	4.17846	4.13187	4.11129	4.07839	4.05743	3.96265	3.91512	3.89852	3.88335	3.87327	3.86802	3.86933	3.87709	3.89469	3.94124	3.93388	3.91578	3.89432	3.8247	3.76094	3.70068	3.64623	3.62929	3.61587	3.60852	3.61329	3.67654	3.77663	3.88855	4.00377	4.02634	3.99894	3.89053	3.68887	3.69895	3.74259	3.8114	3.87287	3.95154	4.00255	3.92436	3.84829	3.74818	3.65539	3.60361	3.59337	3.5913	3.59897	3.63992	3.63461	3.6407	3.65848	3.65563	3.64053	3.63038	3.62254	3.61631	3.6142	3.61047	3.61391	3.61537	3.6228	3.63229	3.63973	3.6455	3.65282	3.65973	3.66836	3.66891	3.67606	3.68295	3.68806	3.6939	3.70867	3.69743	3.69852	3.70209	3.70294	3.70555	3.70296	3.69596	3.66105	3.63156	3.60264	3.53628	3.52673	3.51745	3.51205	3.51005	3.51209	3.51772	3.52763	3.54101	3.61794	3.65383	3.69845	3.73736	3.77429	3.80959	3.84369	3.87563	3.90441	3.91386	3.92179	3.94569	3.95328	3.95687	3.95554	3.94299	3.9406	3.92592	3.91509	3.90329	3.9176	3.92936	3.94468	3.96393	4.03108	4.07167	4.0773	4.06037	4.03761	4.01761	3.99315	3.97629	3.95199	3.92535	3.90637	3.8897	3.87768	3.86587	3.86144	3.85525	3.85723	3.85598	3.86269	3.86594	3.87659	3.88384	3.89774	3.90843	3.92494	3.94273	3.96152	3.97793	3.99802	4.01608	4.00493	3.9766	3.98863	3.99838	4.0369	4.07032	4.10647	4.13739	4.1696	4.20219	4.21516	4.22686	4.23809	4.23103	4.21374	4.20032	4.1778	4.14907	4.10002	3.99661	3.91318	3.84483	3.77946	3.73019	3.80813	3.99381	4.01483	4.01659	4.01333	4.00991	4.00687	4.00341	3.99991	3.99561	3.98963	3.98659	3.98502	3.98361	3.98394	3.98551	3.98364	3.97652	3.97589	3.97846	3.99225	4.01275	4.04403	4.0732	4.11385	4.14463	3.6571	3.58725	3.44513	3.29345	3.15272	3.75078	4.13206	4.1329	4.11741	2.89502	3.02372	3.20501	3.94972	4.0652	4.07525	4.06742	4.00992	3.9892	3.8971	3.84795	3.8487	3.8586	3.87701	3.90277	3.93189	3.97052	4.02075	4.09243	4.15792	4.2617	4.3409	4.41945	4.4865	4.50819	4.52155	4.52654	4.52267	4.51135	4.48522	4.45259	4.40573	4.33876	4.17111	4.00916	3.84208	3.72652	3.70228	3.69009	3.68019	3.72416	3.78288	3.86256	3.95406	4.03527	4.04664	4.03562	4.00826	3.99915	3.99978	4.00672	4.07114	4.12138	4.18354	4.21464	4.22678	4.24964	4.25846	4.25033	4.23512	4.22092	4.16185	4.11417	4.0831	3.99006	3.80607	3.69892	3.6673	3.6945	3.84669	3.87273	3.93996	3.95346	3.97149	3.93807	3.79535	3.71121	3.65306	3.62454	3.6215	3.70304	3.82276	3.91899	3.97708	4.01135	3.99775	3.96351	3.94753	3.90384	3.85367	3.8089	3.76694	3.72225	3.70422	3.70501	3.6507	3.64764	3.65491	3.67164	3.69718	3.73641	3.78291	3.82964	3.88696	3.95091	4.00929	4.04121	4.04395	4.04072	4.08103	4.12463	4.16237	4.19905	4.24566	4.31815	4.37845	4.41151	4.41477	4.40566	4.38525	4.33845	4.14993	3.98394	3.85	3.7376	3.60916	3.51638	3.48595	3.56092	3.68758	3.79116	3.78456	3.79078	3.80115	3.79129	3.75401	3.70494	3.6526	3.60509	3.6092	3.6038	3.5731	3.5744	3.61357	3.71907	3.79827	3.99574	4.04323	4.06441	4.05845	4.03166	3.98093	3.91222	3.84585	3.9865	3.98532	3.98154	3.97845	3.97025	3.96103	3.94993	3.93889	3.99528	4.00374	3.98265
0	-20	4.0867	4.36928	4.49187	4.5354	4.34251	3.94381	3.62025	3.40746	3.34249	3.39131	3.54357	3.98729	4.30796	4.52916	4.53057	4.47963	4.4274	4.37655	4.33365	4.28867	4.2355	4.17545	4.12692	4.08055	4.04316	4.00911	3.98027	3.94936	3.94227	3.93336	3.90051	3.92766	3.96777	4.00688	4.05744	4.11058	4.16935	4.22624	4.28674	4.34216	4.40611	4.43659	4.41249	4.34768	4.30385	4.27613	4.21478	4.19241	4.15807	4.18699	4.21236	4.26069	4.2995	4.35545	4.40044	4.4	4.40408	4.38614	4.36191	4.34544	4.33982	4.30751	4.25737	4.2082	4.16542	4.0788	4.07123	4.06566	4.08813	4.10472	4.12354	4.14537	4.15414	4.08164	4.02426	3.977	3.95969	3.93498	3.92591	3.92062	3.93919	3.95249	3.97495	3.98687	4.01234	4.07364	4.14283	4.21732	4.22768	4.24176	4.25147	4.26367	4.27224	4.2814	4.28827	4.28384	4.27638	4.26444	4.22168	4.21234	4.19893	4.18691	4.17281	4.15898	4.14486	4.12996	4.11604	4.10269	4.08976	4.07751	4.09146	4.0915	4.11895	4.19932	4.261	4.32216	4.38242	4.44599	4.49938	4.51245	4.50315	4.44727	4.40716	4.35927	4.30173	4.25592	4.23442	4.21672	4.20419	4.19284	4.20191	4.19861	4.16503	4.13528	4.10168	4.07092	4.0379	4.00631	3.97462	3.94312	3.91243	3.88326	3.8565	3.83283	3.81976	3.79006	3.77731	3.78428	3.79054	3.80641	3.83042	3.86257	3.89031	3.92273	3.95727	3.98751	4.02601	4.06167	4.10392	4.1506	4.19104	4.21972	4.22941	4.2464	4.25963	4.26496	4.26805	4.24561	4.21476	4.18147	4.13825	4.11278	4.07982	4.05367	4.03148	4.01225	4.02201	4.08783	4.15767	4.20424	4.28841	4.33871	4.39706	4.42051	4.4193	4.41753	4.44024	4.4818	4.53947	4.59618	4.6697	4.73386	4.74583	4.75287	4.72919	4.68985	4.67956	4.5532	4.41799	4.27894	4.14404	4.01097	3.9272	3.8278	3.69349	3.67154	3.63172	3.6364	3.67995	3.76712	3.8528	3.94145	3.99283	4.04302	4.09194	4.14062	4.18313	4.22743	4.23262	4.25127	4.25975	4.27603	4.28529	4.29343	4.30241	4.30818	4.3144	4.31886	4.32345	4.3275	4.3314	4.3358	4.30048	4.28205	4.28866	4.30728	4.34514	4.37145	4.37822	4.38845	4.39622	4.40771	4.4161	4.42822	4.43674	4.4486	4.46042	4.43391	4.39738	4.34863	4.293	4.23092	4.18707	4.14885	4.12842	4.13157	4.14899	4.18424	4.21418	4.26515	4.44685	4.46327	4.44897	4.43328	4.41635	4.3983	4.37947	3.76203	4.34007	4.31978	4.27525	4.19662	4.14256	4.10545	4.04179	4.01636	4.03325	4.03214	4.0279	4.03476	4.03474	4.06808	4.046	4.02608	4.00428	3.986	3.96505	3.94908	3.92989	3.91702	3.90078	3.89192	3.88023	3.87619	3.87034	3.87166	3.87255	3.87934	3.8877	3.89938	3.90765	3.87704	3.85019	3.82125	3.76124	3.69723	3.66804	3.65511	3.67691	3.75733	3.80551	3.88766	3.92076	3.96312	4.0083	4.02529	4.02208	4.03192	4.05265	4.03779	4.01221	4.01735	3.99763	3.93807	3.98585	3.98954	3.99387	4.0025	4.0271	4.0419	4.05461	4.06706	4.07752	4.07323	4.06481	4.0578	4.05022	4.04244	3.96296	3.90893	3.85982	3.82968	3.82371	3.83387	3.87299	3.89638	3.96364	4.00747	4.04618	4.06514	4.07307	4.07448	4.05277	4.05495	4.03963	4.00682	3.97547	3.96014	3.95377	3.94917	3.93774	3.95569	3.9736	3.97682	3.98527	3.98355	3.9866	3.98538	3.98179	3.99857	4.01969	4.02921	4.01941	4.00897	4.0014	3.99083	3.98423	3.97411	3.96619	3.96022	3.97955	3.9734	3.99241	3.97779	3.96255	3.9463	3.92928	3.9115	3.89143	3.87717	3.8327	3.81367	3.79699	3.78217	3.7818	3.79128	3.78683	3.80024	3.90919	4.26481	4.39382	4.33702	4.33671	4.35213	4.32716	4.3253	4.31089	4.30634	4.30795	4.31579	4.32932	4.34593	4.36765	4.38553	4.38122	4.43553	4.4567	4.46333	4.41628	4.39014	4.38281	4.37666	4.38315	4.40188	4.41865	4.43605	4.46114	4.45343	4.49391	4.53591	4.58308	4.6358	4.6795	4.70798	4.74644	4.79798	4.77839	4.75288	4.75119	4.78295	4.84769	4.91774	4.87763	4.83499	4.78595	4.72938	4.712	4.72845	4.74645	4.75165	4.81466	4.90716	5.01972	5.12917	5.19137	5.28838	5.37269	5.44442	5.52642	5.61315	5.69698	5.81839	5.96715	6.09518	6.2368	6.40554	6.55317	6.71153	6.87198	7.03423	7.21641	7.42154	7.65022	7.98621	8.16229	8.38226	8.66066	8.99387	9.39323	9.86179	10.3401	10.9531	11.5731	12.3399	13.1662	14.2001	15.2821	16.5985	18.2032	20.2108	22.4498	25.0401	27.8773	31.1757	35.2067	39.8588	46.2825	55.0028	71.568	86.8597	103.585	134.966	164.415	193.365	200.651	203.967	185.733	163.107	133.149	104.691	83.0188	71.1569	55.3598	47.2839	40.1442	34.0187	27.4889	25.6256	22.537	20.4312	18.7529	16.968	15.7259	14.5901	13.4593	12.6337	11.97	11.2178	10.5583	9.99406	9.53422	9.18502	8.91532	8.56096	8.26781	8.00652	7.76434	7.46098	7.23456	7.0282	6.86148	6.74042	6.64558	6.47164	6.29016	6.14097	5.97743	5.81027	5.66818	5.53633	5.44629	5.35118	5.26531	5.19471	5.15333	5.14973	5.1663	5.22752	5.36115	5.42094	5.41921	5.40466	5.36237	5.1446	5.04385	4.96992	4.86318	4.86711	4.93404	4.98074	5.00334	4.93491	4.91828	4.89649	4.90367	4.9269	4.95903	4.93059	4.85707	4.75172	4.66108	4.61071	4.57261	4.55708	4.54671	4.66391	4.69638	4.7233	4.74415	4.73299	4.7101	4.68055	4.64045	4.53441	4.47989	4.46702	4.39332	4.32155	4.28551	4.22267	4.16423	4.12022	4.06877	4.05989	4.04467	4.06161	4.09295	4.06815	4.0533	4.05268	4.05932	4.06945	4.08352	4.09837	4.11221	4.12773	4.13479	4.12988	4.08734	4.02483	3.97482	3.93819	3.89995	3.89152	3.86512	3.89587	3.94056	3.9995	4.07138	4.15574	4.18822	4.19826	4.20753	4.21711	4.20617	4.18394	4.16153	4.14246	4.11644	4.09678	4.05725	4.00404	3.96205	3.93762	3.9066	3.89964	3.9151	3.93623	3.97498	4.01822	4.02792	3.94791	3.86258	3.7842	3.69979	3.62867	3.53964	3.51339	3.49887	3.48696	3.59944	3.6156	3.61823	3.64962	3.71555	3.75435	3.78083	3.72414	3.67104	3.6093	3.55589	3.4987	3.4538	3.40452	3.32443	3.29963	3.27735	3.26748	3.27621	3.28632	3.30783	3.32415	3.34834	3.37487	3.40263	3.43388	3.46645	3.50061	3.53623	3.57164	3.60618	3.62955	3.68119	3.71499	3.7511	3.78233	3.8173	3.84665	3.87983	3.89803	3.86381	3.8059	3.7731	3.75018	3.73415	3.73832	3.75698	3.79957	3.83656	3.87286	3.89232	3.90542	3.92082	3.93448	3.89904	3.8596	3.82468	3.7711	3.7486	3.72361	3.71187	3.69721	3.71622	3.75575	3.8079	3.8444	3.87798	3.9109	3.9233	3.94537	3.96735	3.97374	3.98517	3.94403	3.91162	3.86802	3.79983	3.73255	3.66891	3.60042	3.54621	3.48545	3.4323	3.38363	3.35475	3.48307	3.56071	3.65325	3.75304	3.8593	3.96528	4.06479	4.13667	4.14421	4.12041	4.07045	4.01856	3.97478	3.94568	3.90873	3.81681	3.77922	3.7606	3.74901	3.76267	3.76297	3.76457	3.75827	3.76504	3.76005	3.75755	3.75571	3.75527	3.77026	3.77668	3.78506	3.79067	3.80116	3.80657	3.82018	3.82951	3.79188	3.75726	3.69585	3.6818	3.65116	3.69045	3.70875	3.74447	3.79711	3.80351	3.76239	3.72207	3.69353	3.63979	3.61964	3.61794	3.67593	3.7422	3.81159	3.88201	3.93442	3.99139	3.95937	3.93761	3.90694	3.89496	3.89101	3.89177	3.91001	3.92813	3.94026	3.95202	3.93886	3.89443	3.87679	3.87564	3.84533	3.77272	3.70245	3.6349	3.57213	3.51209	3.4607	3.44797	3.42588	3.40384	3.41523	3.42543	3.45907	3.5345	3.63741	3.75534	3.88396	4.01586	4.14999	4.27078	4.2725	4.25881	4.23771	4.20618	4.15711	4.05644	4.02828	4.02573	4.00962	4.01806	3.99194	3.91785	3.86268	3.89893	3.90094	3.92819	3.95852	3.98858	4.0198	4.02918	4.00371	3.9917	3.97136	3.94324	3.91343	3.92061	3.88959	3.89107	3.91338	3.9452	3.96336	3.9658	3.95439	3.9377	3.95547	3.96805	3.95425	3.96784	3.9616	3.93553	3.93204	3.94867	3.93626	3.95879	3.95081	3.95467	3.9479	3.9474	3.93161	3.91344	3.89943	3.95774	3.9488	3.93692	3.8945	3.83246	3.77605	3.71999	3.69072	3.65241	3.64376	3.63079	3.68237	3.71869	3.7511	3.78451	3.79642	3.79663	3.79874	3.81491	3.80897	3.80475	3.81472	3.8169	3.82906	3.83675	3.84516	3.80613	3.71783	3.69614	3.69641	3.6949	3.74463	3.77962	3.81487	3.84888	3.89047	3.931	3.96967	4.00366	4.02649	4.0225	3.98914	3.9492	3.90918	3.87724	3.85978	3.85608	3.83793	3.83743	3.85196	3.86708	3.88976	3.92999	3.98593	4.03214	3.98756	3.94011	3.88997	3.83743	3.78604	3.73305	3.67724	3.61801	3.61518	3.61216	3.62206	3.69467	3.72944	3.76457	3.76695	3.76105	3.77978	3.80207	3.81997	3.81727	3.79974	3.77905	3.76078	3.78768	3.82759	3.86624	3.89686	3.94691	3.98311	4.03667	4.08023	4.09114	4.12309	4.13137	4.1152	4.11604	4.11012	4.1036	4.09352	4.06598	4.023	3.99662	4.0024	3.99922	4.00474	4.01464	4.0005	3.9961	3.97142	3.95313	3.91121	3.86798	3.83304	3.77104	3.71789	3.68968	3.67852	3.66231	3.63839	3.60448	3.56997	3.57903	3.57741	3.58612	3.65521	3.71097	3.75501	3.80162	3.83944	3.87957	3.93275	3.95592	3.98239	3.98327	3.93728	3.88147	3.81708	3.63158	3.48383	3.2683	2.93163
0	0	3.58865	3.7783	3.96718	4.13271	4.21303	4.25258	4.31141	4.34383	4.34129	4.3218	4.33167	4.31556	4.28221	4.28293	4.2799	4.2773	4.274	4.26226	4.26596	4.29986	4.31509	4.33638	4.36104	4.37289	4.3662	4.37858	4.38372	4.38501	4.36315	4.34617	4.33772	4.35771	4.37009	4.40212	4.41125	4.40163	4.40584	4.42592	4.44469	4.45442	4.4447	4.43175	4.41883	4.40031	4.37386	4.35142	4.30347	4.28566	4.25459	4.23283	4.21247	4.19535	4.20139	4.24789	4.23033	4.23324	4.21681	4.22165	4.24193	4.28597	4.3198	4.33239	4.31781	4.31349	4.29763	4.29648	4.31163	4.35832	4.33579	4.31704	4.28281	4.26795	4.23046	4.20621	4.19608	4.19	4.19185	4.21091	4.24662	4.22995	4.23861	4.24523	4.23742	4.22102	4.21077	4.18843	4.20093	4.20942	4.19827	4.20671	4.19586	4.21376	4.24253	4.29591	4.34913	4.37007	4.40599	4.43768	4.42226	4.39181	4.36773	4.33107	4.27752	4.26564	4.24811	4.25103	4.23692	4.19496	4.15402	4.1057	4.05352	4.03798	3.99878	3.9389	3.86644	3.8028	3.86177	3.86116	3.88855	3.93909	4.00138	4.10415	4.22069	4.28435	4.26617	4.2372	4.21597	4.2171	4.23656	4.23169	4.23684	4.20302	4.12422	4.13545	4.15446	4.1627	4.14918	4.12925	4.09881	4.06449	4.03073	4.00496	3.95689	3.9222	3.89362	3.90847	3.98722	4.03666	4.1778	4.21736	4.23511	4.2419	4.2485	4.13091	3.61564	3.50335	3.82797	3.99176	4.14755	4.29846	4.29912	4.31214	4.30299	4.26662	4.25395	4.24253	4.22252	4.21604	4.21029	4.23605	4.2525	4.28112	4.31595	4.37502	4.41449	4.47672	4.49921	4.47607	4.43239	4.4082	4.36363	4.33694	4.29246	4.25888	4.23514	4.20788	4.18239	4.19955	4.26276	4.31749	4.37241	4.41831	4.48759	4.55087	4.61661	4.58979	4.46637	4.40008	4.38091	4.3892	4.37046	4.35726	4.34919	4.32958	4.31722	4.32761	4.34671	4.37957	4.41489	4.42515	4.44667	4.45178	4.4594	4.45231	4.45508	4.46013	4.45788	4.46118	4.46344	4.46827	4.47373	4.47365	4.46595	4.42233	4.42888	4.42236	4.39817	4.35233	4.32222	4.28826	4.25737	4.21649	4.19143	4.16155	4.11908	4.10795	4.07765	4.04088	4.03851	4.05921	4.08683	4.13487	4.17127	4.21609	4.23253	4.23696	4.2244	4.1956	4.16794	4.11777	4.09927	4.07563	4.03735	4.01392	3.97069	3.91641	3.8784	3.83769	3.83523	3.83135	3.84175	3.85258	3.87408	3.92158	3.9412	3.96133	3.98107	4.00156	4.01594	4.02305	3.99683	3.96087	3.94933	3.95212	3.94854	4.00965	4.02573	4.00537	3.98018	3.93506	3.89811	3.90252	3.93493	3.92799	3.924	3.86086	3.78845	3.79195	3.83122	3.84776	3.89846	3.86676	3.80787	3.65982	3.72638	3.71766	3.66198	3.57897	3.64403	3.69379	3.75996	3.82971	3.90245	3.97406	4.05157	4.15478	4.19967	4.23599	4.22922	4.23803	4.21416	4.12737	4.0262	3.93883	3.88509	3.82401	3.7927	3.77572	3.7869	3.81936	3.85764	3.88869	3.957	3.93533	3.89259	3.91039	3.91752	3.96999	3.99823	4.02951	4.05729	4.08826	4.05862	4.03956	4.0287	4.03181	4.00191	3.9532	3.92166	3.8961	3.89391	3.86374	3.84913	3.83107	3.82028	3.79594	3.77683	3.7729	3.77139	3.79249	3.83316	3.85994	3.87811	3.89987	3.92537	3.96309	4.00621	4.03886	4.07321	4.11334	4.08398	3.98971	3.95481	3.92743	3.91537	3.89957	3.8889	3.88645	3.87921	3.89935	3.92039	3.92219	3.92739	3.93286	3.96147	4.0079	4.03861	4.07047	4.07482	4.05255	4.04929	4.05983	4.07637	4.10297	4.1362	4.17367	4.20377	4.26452	4.30961	4.37104	4.43013	4.45376	4.4402	4.41754	4.37789	4.29754	4.18565	4.06292	3.94488	3.74562	3.73591	3.78338	3.84534	3.89577	3.96685	4.08165	4.11042	4.14678	4.17244	4.20749	4.2392	4.25006	4.20754	4.18611	4.1755	4.16162	4.17824	4.21054	4.2307	4.26684	4.31836	4.35855	4.41354	4.44427	4.47811	4.48572	4.48529	4.47202	4.49342	4.53217	4.39988	3.35864	4.4566	4.56805	4.61859	4.66944	4.71117	4.75819	4.83081	4.9033	4.97611	5.04898	5.10021	5.15741	5.22746	5.28551	5.34256	5.39414	5.4508	5.48316	5.49233	5.48949	5.49386	5.49588	5.5031	5.54331	5.54196	5.57706	5.64723	5.7153	5.83697	5.96959	6.1551	6.3305	6.53949	6.71824	6.88844	7.0958	7.26891	7.36281	7.44969	7.58359	7.83257	8.09741	8.41018	8.82852	9.25981	9.66064	10.1533	10.6614	11.0981	11.7543	12.3364	13.108	13.9219	15.0506	16.2052	17.6801	19.4135	21.3056	23.4695	26.1774	29.4812	34.4408	39.1904	44.8609	52.0426	63.3364	80.1831	100.506	125.736	159.922	190.308	213.762	221.426	213.671	185.691	150.068	128.863	100.345	81.3284	64.3715	53.5974	44.598	39.1557	34.1743	28.5914	25.7685	23.4161	21.2237	19.0273	17.2677	15.7325	14.4993	13.4157	12.4745	11.5918	10.9292	10.3463	9.87606	9.39356	8.92479	8.53726	8.24335	7.97467	7.65781	7.44051	7.23287	7.03138	6.877	6.75777	6.64706	6.53457	6.41541	6.27595	6.14657	6.02251	5.91049	5.80649	5.70684	5.63387	5.53675	5.3939	5.2667	5.12086	4.96717	4.8059	4.69412	4.67183	4.70129	4.82542	4.91154	4.98311	4.99856	4.92716	4.81974	4.68883	4.63748	4.61012	4.53391	4.47828	4.45384	4.42907	4.43176	4.46083	4.46297	4.51255	4.56357	4.60824	4.65895	4.68649	4.68002	4.64658	4.61073	4.58061	4.54831	4.51711	4.47341	4.42302	4.36701	4.31933	4.24404	4.20247	4.17438	4.16925	4.15359	4.14306	4.14242	4.15842	4.16167	4.15482	4.12734	4.10631	4.08779	4.07491	4.06634	4.0624	4.047	4.02177	4.01159	3.97491	3.94494	3.94591	3.95332	3.98072	3.97817	3.96795	3.97655	3.97082	3.95934	3.92956	3.93658	3.91063	3.89504	3.90662	3.91474	3.91213	3.92969	3.99218	4.02042	4.03751	4.06733	4.07075	4.01983	3.9085	3.80047	3.71738	3.74323	3.75765	3.77674	3.8075	3.85992	3.92194	3.98013	3.9853	3.99242	4.01211	4.04751	4.04685	4.052	3.99322	3.93326	3.86709	3.77297	3.6778	3.52451	3.52826	3.54507	3.58567	3.62184	3.67303	3.72733	3.78401	3.83219	3.83818	3.84431	3.84707	3.85083	3.80323	3.77698	3.74916	3.7021	3.66512	3.61364	3.56569	3.5443	3.52368	3.52724	3.52619	3.54942	3.56167	3.59875	3.63362	3.6773	3.71259	3.74564	3.77385	3.81328	3.84172	3.87575	3.91603	3.93738	3.81126	3.66789	3.5711	3.4991	3.48302	3.55057	3.63948	3.696	3.80579	3.86965	3.91294	3.9013	3.87722	3.87888	3.8674	3.86106	3.81975	3.81777	3.81792	3.80452	3.78233	3.77963	3.79383	3.82101	3.8597	3.93779	3.91885	3.87673	3.84724	3.80739	3.73197	3.66389	3.62196	3.58734	3.57437	3.56661	3.57125	3.59574	3.60904	3.631	3.68728	3.7456	3.78765	3.80363	3.79549	3.80503	3.79763	3.77564	3.7604	3.73745	3.69665	3.69016	3.70056	3.70065	3.67811	3.63571	3.59734	3.55526	3.57426	3.57716	3.56779	3.58694	3.61401	3.64186	3.68886	3.72347	3.74508	3.77512	3.80623	3.84858	3.87592	3.88872	3.88463	3.86285	3.85791	3.85941	3.84629	3.84711	3.85399	3.8484	3.84182	3.80745	3.78057	3.7387	3.70038	3.65162	3.6047	3.56788	3.50944	3.5088	3.51749	3.53785	3.56607	3.62584	3.67902	3.72143	3.75163	3.80921	3.86864	3.90334	3.92438	3.94754	3.94843	3.9576	4.01187	4.00539	3.9837	3.96975	3.97255	3.95335	3.91421	3.89191	3.88017	3.88565	3.89823	3.87656	3.85777	3.84909	3.83267	3.8286	3.82939	3.84655	3.85854	3.85628	3.87332	3.87109	3.88567	3.90579	3.93848	3.97702	3.98858	4.01591	4.04846	4.10465	4.1422	4.16118	4.14811	4.1249	4.10777	4.06209	4.02504	4.01781	4.001	3.99658	3.99621	3.96868	3.96438	3.91401	3.75339	3.58244	3.39676	3.67163	3.893	3.90497	3.87278	3.83328	3.78372	3.73395	3.67527	3.60663	3.57393	3.54806	3.55493	3.55898	3.56103	3.5723	3.58582	3.59911	3.59324	3.6115	3.61421	3.61506	3.64604	3.65529	3.66326	3.67035	3.67461	3.67758	3.6907	3.69949	3.716	3.73115	3.75129	3.76762	3.79631	3.81167	3.83417	3.84003	3.81753	3.78744	3.76227	3.75216	3.73744	3.72034	3.70645	3.70584	3.70242	3.70251	3.71106	3.72739	3.73556	3.73865	3.77844	3.82434	3.86147	3.90178	3.93917	3.95031	3.94781	3.96277	3.97793	3.94401	3.92068	3.85184	3.81378	3.77613	3.73176	3.69398	3.6833	3.68239	3.68066	3.69601	3.70319	3.7173	3.74991	3.77757	3.80929	3.84097	3.89493	3.92505	3.96079	3.96805	3.97412	3.96439	3.96411	3.95913	3.96967	4.00374	3.97078	3.91128	3.86395	3.78364	3.76598	3.76042	3.80318	3.80503	3.80421	3.79873	3.7979	3.82388	3.81186	3.80936	3.76701	3.84007	3.8312	3.81745	3.80625	3.78859	3.78616	3.7654	3.75626	3.74729	3.74005	3.75561	3.78842	3.81639	3.82689	3.75971	3.71069	3.62691	3.54795	3.69611	3.71208	3.73406	3.76097	3.79166	3.82531	3.85633	3.81448	3.7239	3.66844	3.65952	3.6566	3.65617	3.72352	3.73836	3.75843	3.78488	3.79596	3.82571	3.87279	3.90428	3.92334	3.96208	4.03728	4.10624	4.16158	4.2078	4.23474	4.22763	4.21897	4.20668	4.17862	4.14836	4.10838	4.02374	3.9441	3.86231	3.78868	3.74774	3.69787	3.72641	3.73543	3.77894	3.81581	3.81825	3.72563	3.7058	3.69187	3.68113	3.66623	3.66341	3.67321	3.67661	3.66688	3.64735	3.63612	3.64813	3.63074	3.58197	3.46893	3.41968
0	20	4.05362	4.25214	4.41281	4.39874	4.47303	4.53576	4.60697	4.65471	4.66858	4.64457	4.61124	4.58368	4.54575	4.50936	4.47261	4.43108	4.42367	4.42046	4.40885	4.4286	4.43743	4.44908	4.45443	4.46196	4.48933	4.4726	4.44957	4.39752	4.35489	4.31333	4.26671	4.2172	4.17931	4.13734	4.06814	4.05679	4.0633	4.07783	4.12284	4.10769	4.04525	3.99032	3.97023	3.95824	3.92742	3.86351	3.88019	3.9003	3.92912	3.95639	3.99297	4.02911	4.07237	4.1198	4.16355	4.21157	4.25509	4.30457	4.34599	4.39494	4.44442	4.50624	4.53257	4.55118	4.52722	4.5101	4.49202	4.47806	4.45713	4.43774	4.41504	4.35289	4.26148	4.22113	4.19333	4.16943	4.15333	4.14117	4.12694	4.12153	4.11526	4.11062	4.1084	4.10488	4.10518	4.10005	4.1045	4.10158	4.09346	4.09	4.09333	4.09297	4.09042	4.09041	4.09071	4.08659	4.08684	4.09048	4.09637	4.09572	4.09143	4.09347	4.09695	4.1051	4.1141	4.12418	4.15952	4.14898	4.13351	4.11883	4.1052	4.09285	4.08201	4.07285	4.06549	4.06007	4.05663	4.05522	4.05556	4.05752	4.06101	4.01198	4.00265	4.00867	4.00592	3.99741	3.96347	3.90435	3.89373	3.95948	4.05623	4.15653	4.16876	4.18155	4.19535	4.21016	4.22595	4.24525	4.26152	4.28067	4.27855	4.28242	4.28953	4.28803	4.28999	4.29473	4.30015	4.3251	4.36035	4.35841	4.32071	4.24707	4.18242	4.13275	4.1229	4.09015	4.08232	4.09556	4.10225	4.12824	4.11411	4.10139	4.08775	4.07186	4.05638	4.04405	4.03158	4.01975	4.00856	3.95804	3.89498	3.83468	3.77422	3.72121	3.66309	3.59575	3.589	3.66774	3.73385	3.82112	3.90352	3.99944	4.07818	4.25735	4.30472	4.34335	4.37834	4.32962	4.32698	4.31151	4.29498	4.28275	4.2688	4.25232	4.1984	4.17182	4.14625	4.13114	4.11835	4.16623	4.21561	4.26254	4.29152	4.30341	4.31719	4.32988	4.34297	4.3556	4.36742	4.3793	4.38942	4.37757	4.34911	4.32147	4.28756	4.26906	4.26298	4.25278	4.28354	4.31783	4.35134	4.38983	4.42951	4.43806	4.43255	4.42532	4.41668	4.4069	4.39623	4.38485	4.36065	4.31977	4.28061	4.23118	4.19678	4.16671	4.14194	4.12305	4.11114	4.14974	4.19398	4.23611	4.24402	4.24488	4.25707	4.25881	4.26438	4.26717	4.27574	4.28203	4.29332	4.30288	4.3164	4.3288	4.34379	4.35824	4.37365	4.38904	4.40353	4.41844	4.44149	4.41337	4.39083	4.36207	4.33601	4.30739	4.28252	4.25538	4.23174	4.21021	4.21256	4.22357	4.22493	4.18228	4.16106	4.11463	4.08849	4.06143	4.03774	4.019	4.09973	4.13327	4.15715	4.23369	4.21296	4.19979	4.17337	4.07895	3.97871	3.90239	3.81038	3.74372	3.66189	3.65581	3.71763	3.77173	3.83137	3.88511	3.94939	3.97602	3.98837	4.03221	3.98223	3.94946	3.88636	3.82914	3.76492	3.7152	3.68626	3.63823	3.65984	3.65921	3.65713	3.61632	3.56961	3.58644	3.58248	3.57431	3.59237	3.5987	3.6157	3.63151	3.65469	3.6785	3.70622	3.73696	3.7689	3.80587	3.8432	3.88559	3.92719	3.9743	4.01968	4.07072	4.08675	4.09622	4.10415	4.11368	4.12019	4.09922	4.08897	4.07613	4.05287	4.00522	3.98846	3.96892	3.95189	3.95191	3.95714	3.98746	4.02687	4.03923	4.06056	4.08169	4.1046	4.09263	4.10696	4.12645	4.14101	4.10694	4.07578	3.98241	3.85641	3.73156	3.6314	3.56556	3.55632	3.57368	3.60685	3.5612	3.54305	3.54658	3.6054	3.67499	3.76046	3.85899	3.9756	4.10965	4.38134	4.37021	4.34112	4.31102	4.26416	4.2075	4.1507	4.11343	4.02121	4.01172	3.99315	4.00026	4.00731	4.03211	4.06075	4.09044	4.12039	4.13643	4.15163	4.17165	4.19543	4.21163	4.24712	4.2759	4.28	4.29669	4.29352	4.26767	4.25306	4.23181	4.2132	4.19068	4.17007	4.14849	4.12627	4.10782	4.08811	4.07488	4.05985	4.05256	4.04443	4.04493	4.11322	4.14482	4.17924	4.23297	4.28764	4.34524	4.40651	4.45863	4.52538	4.56397	4.61514	4.65475	4.69834	4.74634	4.79936	4.85826	4.9117	4.9725	5.05693	5.12024	5.18266	5.24818	5.26066	5.25476	5.22712	5.16743	5.08972	5.08642	5.09691	5.19998	5.28392	5.38313	5.49269	5.6089	5.63477	5.66325	5.69893	5.73837	5.78867	5.84206	5.93845	6.06953	6.18043	6.29972	6.43663	6.56288	6.70644	6.85418	7.01111	7.17072	7.35269	7.73193	8.23876	8.51328	8.77644	9.01488	9.38023	9.64529	10.0402	10.4498	11.0294	11.9538	12.6839	13.2815	13.9136	14.8256	15.9154	17.1748	18.6876	20.7952	23.1022	25.9901	29.4241	33.6908	38.9539	46.2588	53.6256	61.9094	71.9102	94.1411	115.897	149.474	177.408	207.806	222.687	221.188	203.274	172.029	135.616	109.792	88.6938	72.182	59.1324	49.9762	42.7428	36.6021	32.092	27.271	24.1847	21.3384	19.1587	17.3218	15.8877	14.7714	13.9579	13.1884	12.5676	11.6433	11.0016	10.3237	9.84548	9.42271	9.00564	8.68165	8.41387	8.1714	7.94283	7.73974	7.55298	7.37857	7.21469	7.05267	6.87493	6.71951	6.57984	6.44409	6.34072	6.23815	6.1506	6.06496	5.98987	5.91748	5.8508	5.78803	5.72597	5.66932	5.60815	5.54675	5.47738	5.41526	5.32763	5.21786	5.08908	4.96605	4.85416	4.73387	4.61924	4.51322	4.63679	4.6648	4.75102	4.88804	4.93159	4.93315	4.88989	4.79947	4.71487	4.65852	4.63528	4.65172	4.72132	4.72632	4.66636	4.61805	4.56936	4.52941	4.5363	4.50646	4.45736	4.28401	4.30967	4.35224	4.41618	4.46298	4.48609	4.47533	4.46993	4.45391	4.46482	4.44246	4.4118	4.36395	4.32152	4.28296	4.26456	4.24892	4.23839	4.22916	4.22339	4.19254	4.172	4.15742	4.14134	4.13132	4.12175	4.11702	4.11517	4.11526	4.13131	4.08611	4.03494	3.9845	3.92772	3.91171	3.95535	3.97991	4.00299	4.0308	4.05512	4.0538	4.06057	4.04851	4.01578	3.97734	3.92671	3.89076	3.85138	3.81535	3.77893	3.74428	3.712	3.68009	3.65334	3.62567	3.60283	3.57514	3.5624	3.56097	3.58637	3.61709	3.65756	3.70155	3.7509	3.80204	3.82077	3.84095	3.86697	3.89006	3.93931	3.93451	3.95291	3.96938	3.9514	3.95334	3.95529	4.00914	3.97656	3.93719	3.89982	3.86479	3.8313	3.79876	3.77088	3.74197	3.71974	3.69502	3.70301	3.7026	3.69724	3.69199	3.68552	3.68121	3.67683	3.67355	3.67118	3.66958	3.66845	3.66734	3.667	3.66625	3.66631	3.66589	3.66605	3.66598	3.66602	3.66634	3.66631	3.66754	3.66799	3.67007	3.66909	3.67105	3.67074	3.65347	3.61069	3.57663	3.55088	3.52583	3.51682	3.5065	3.50518	3.58704	3.62769	3.65113	3.63707	3.61869	3.59914	3.57582	3.55008	3.52517	3.46768	3.47152	3.47412	3.48388	3.39584	3.35534	3.325	3.09651	3.37819	3.66271	3.80287	3.89022	3.94045	3.96103	3.98041	3.95299	3.92789	3.90455	3.88306	3.83325	3.8134	3.77561	3.74181	3.71829	3.70393	3.69804	3.68278	3.67081	3.65889	3.67715	3.68671	3.70075	3.71662	3.73836	3.76078	3.79671	3.79472	3.77704	3.6725	3.54976	3.41104	3.25303	3.27679	3.49087	3.59014	3.59909	3.60062	3.61235	3.62532	3.63925	3.7381	3.58261	3.61168	3.57907	3.32295	3.50587	3.77489	3.80892	3.86034	3.89374	3.86583	3.81647	3.78213	3.73911	3.70339	3.66405	3.62926	3.59571	3.56356	3.53768	3.50931	3.50899	3.50419	3.50479	3.51135	3.51644	3.52624	3.53373	3.54514	3.55595	3.56982	3.5832	3.59863	3.61376	3.62975	3.64576	3.66119	3.67706	3.69063	3.70472	3.72514	3.73319	3.72405	3.6996	3.66038	3.62937	3.58585	3.54912	3.50631	3.4685	3.43188	3.38939	3.36765	3.34538	3.31482	3.33839	3.47875	3.57802	3.67317	3.76349	3.76984	3.74048	3.7287	3.7144	3.71806	3.79768	3.8657	3.91826	3.99513	4.05581	4.10798	4.15577	4.20535	4.24495	4.24642	4.24794	4.2706	4.27128	4.29921	3.97372	3.44526	3.52166	3.60468	3.39185	3.24982	3.84164	3.9467	4.25141	4.31446	4.24058	4.13978	4.057	3.98472	3.92578	3.88847	3.84322	3.66118	3.59724	3.6259	3.69782	3.96235	3.95634	3.98911	4.17403	4.22804	4.23293	4.20824	4.16308	4.11289	4.02699	4.01472	3.99951	3.96996	3.95986	3.95071	3.94818	3.95421	3.96134	3.97054	4.00987	4.02659	4.04671	4.08077	4.11591	4.14083	4.15242	4.1574	4.15576	4.15285	4.14965	4.14775	4.10253	4.06286	4.03154	3.99673	3.96733	3.93861	3.89007	3.85333	3.79386	3.74798	3.74253	3.73766	3.77066	3.82943	3.89507	3.99884	4.0995	4.11464	4.12417	4.11975	4.11279	4.10675	4.09788	4.08325	4.04019	3.99819	3.95901	3.9225	3.88839	3.8605	3.83662	3.82069	3.81136	3.80962	3.81415	3.80043	3.77728	3.75435	3.73601	3.70985	3.70298	3.6999	3.69656	3.70246	3.77203	3.78662	3.72926	3.72456	3.75668	3.85717	3.87565	3.8812	3.89361	3.89914	3.85586	3.82507	3.82131	3.80448	3.80352	3.80284	3.82412	3.84539	3.91138	3.97702	4.04839	4.13686	4.16538	4.18709	4.22071	4.23978	4.2418	4.25137	4.25651	4.23963	4.1248	3.97318	3.95505	3.90247	3.87608	3.85085	3.85726	3.97358	3.95182	3.96176	3.95069	3.954	3.77517	3.85339	3.9627	3.91325	3.91682	3.88777	3.8627	3.83265	3.805	3.76941	3.71601	3.66054	3.61782	3.55506	3.51668	3.47369	3.50321	3.54148	3.59379	3.6249	3.65015	3.67976	3.71154	3.74548	3.7756	3.75596	3.73525	3.77233	3.78298	3.78141	3.79187	3.88994	3.91901	3.98382	4.03235	3.95577	4.03377
20	-20	4.42472	4.40057	4.39195	4.39186	4.36005	4.37293	4.32682	4.26968	4.24496	4.21239	4.19214	4.1896	4.20512	4.21961	4.22242	4.21614	4.2265	4.24135	4.25233	4.26418	4.29253	4.29626	4.29332	4.29206	4.29194	4.2883	4.26819	4.27206	4.27243	4.28432	4.29659	4.30886	4.32825	4.34639	4.37201	4.39545	4.42309	4.45195	4.47824	4.50589	4.52717	4.52107	4.52405	4.56288	4.59875	4.6182	4.60546	4.61193	4.58844	4.57239	4.64546	4.7078	4.7603	4.76231	4.71419	4.58653	4.38671	4.45727	4.55347	4.59961	4.52037	4.57634	4.6328	4.68276	4.71192	4.65379	4.63248	4.6459	4.66941	4.69271	4.67766	4.64961	4.6213	4.59593	4.53839	4.49031	4.45988	4.43739	4.43629	4.38051	4.34262	4.29942	4.26286	4.22063	4.14342	4.07733	4.03192	3.98974	4.09502	4.20886	4.31818	4.43372	4.46414	4.48838	4.51582	4.56169	4.62805	4.69305	4.74688	4.75352	4.74903	4.74035	4.73378	4.72029	4.71101	4.69493	4.68439	4.6689	4.59635	4.49409	4.42184	4.38909	4.35657	4.31076	4.30026	4.32098	4.36011	4.40019	4.39398	4.38169	4.32078	4.27965	4.21587	4.20741	4.26805	4.29534	4.34304	4.38585	4.42921	4.47643	4.5217	4.57143	4.62231	4.65968	4.7049	4.67173	4.58208	4.51519	4.47352	4.43029	4.36783	4.32682	4.25999	4.19515	4.15657	4.09499	4.0557	4.05341	4.06745	4.09792	4.1411	4.16161	4.18627	4.20049	4.22686	4.24495	4.26064	4.30774	4.35676	4.4139	4.45345	4.47871	4.48376	4.48828	4.48057	4.47005	4.45486	4.44267	4.45394	4.47564	4.46952	4.44018	4.42233	4.37825	4.38113	4.38309	4.39268	4.43934	4.47308	4.4836	4.48591	4.50981	4.52343	4.54035	4.55348	4.58554	4.63356	4.68719	4.68243	4.67921	4.67618	4.67128	4.66779	4.66026	4.6143	4.578	4.55972	4.51589	4.48465	4.49141	4.51094	4.52919	4.53979	4.54989	4.55546	4.58883	4.6273	4.60979	4.58263	4.53666	4.53512	4.51272	4.50844	4.48656	4.46577	4.47886	4.50333	4.52876	4.58918	4.6566	4.697	4.74348	4.80662	4.85078	4.81632	4.78236	4.74161	4.70015	4.65634	4.61762	4.57172	4.53621	4.50769	4.48749	4.4828	4.47813	4.47983	4.49604	4.54652	4.61387	4.54862	4.50044	4.45011	4.42844	4.40799	4.4036	4.42917	4.43084	4.42383	4.4378	4.46008	4.47899	4.52809	4.5973	4.66073	4.68376	4.61987	4.46772	4.32768	4.20504	4.56803	4.55832	4.55113	4.56404	4.58629	4.40891	4.43494	4.51374	4.59583	4.63303	4.62032	4.5658	4.508	4.48768	4.43356	4.405	4.39126	4.363	4.29571	4.22717	4.15533	4.02687	3.98744	4.09454	4.13561	4.18097	4.24053	4.29039	4.31291	4.31003	4.31959	4.31732	4.26711	4.11382	4.08483	4.1314	4.19113	4.2578	4.29042	4.3109	4.31224	4.28674	4.24573	4.22741	4.17139	4.18155	4.1965	4.20218	4.21582	4.21382	4.23549	4.22826	4.22222	4.19632	4.1521	4.08447	4.0088	3.96413	3.9379	3.90783	3.89952	3.95267	3.99735	4.02134	4.03381	4.0575	4.07803	4.09828	4.11887	4.14053	4.15807	4.17984	4.19422	4.21521	4.22846	4.22797	4.16824	4.12127	4.08303	4.08222	4.11293	4.11468	4.11779	4.13732	4.16341	4.1995	4.21465	4.19376	4.15857	4.11899	4.08544	4.05649	4.0385	4.01802	4.0041	4.01404	4.01373	4.00217	3.98756	3.97334	3.9631	3.99155	3.99681	3.99884	4.01427	4.00004	4.01472	4.01753	4.05925	4.11172	4.16065	4.21941	4.27482	4.33663	4.39552	4.45657	4.49375	4.51503	4.54374	4.54427	4.46869	4.40216	4.35425	4.33105	4.31179	4.32989	4.36955	4.39051	4.39926	4.38624	4.38055	4.3535	4.42842	4.49951	4.54993	4.4958	4.45178	4.44107	4.42761	4.43053	4.36112	4.34904	4.35663	4.43487	4.50458	4.56057	4.63252	4.68964	4.75394	4.81335	4.88523	4.92565	4.89405	4.87492	4.82344	4.79334	4.77393	4.71992	4.69645	4.69433	4.6848	4.69207	4.70498	4.76374	4.77931	4.7824	4.82146	4.86232	4.90956	4.96235	5.00315	5.0096	4.99994	4.95153	4.89511	4.85315	4.84655	4.83783	4.84609	4.86717	4.89975	4.95226	5.02066	5.0725	5.14996	5.24007	5.31595	5.31993	5.33282	5.35087	5.43167	5.49227	5.57023	5.64295	5.7343	5.8075	5.892	5.97404	6.05643	6.15388	6.21955	6.3054	6.41934	6.56763	6.69819	6.82634	6.96564	7.17157	7.32157	7.45018	7.57753	7.70446	7.83154	8.03946	8.25197	8.54843	8.85606	9.43167	9.88518	10.4424	11.078	11.7638	12.4198	13.1422	13.9773	14.9331	16.1828	17.6878	19.3715	21.0299	23.0607	25.409	28.5556	32.5304	38.1121	43.2165	53.9903	62.3593	77.6046	95.2077	115.55	148.406	183.089	212.283	222.846	231.31	201.491	164.129	133.593	110.54	92.1946	69.1067	57.3686	47.8768	36.3192	35.4186	28.3562	25.7581	25.0484	22.624	20.3989	18.7226	16.9991	15.8678	14.7793	13.8074	12.9285	12.1601	11.4957	10.8332	10.3129	9.7831	9.41608	9.11	8.826	8.59344	8.39638	8.11771	8.03644	7.8566	7.56272	7.36406	6.60441	6.40092	6.27841	6.23715	6.31981	6.40869	6.36478	6.23309	6.10563	5.94646	5.77009	5.67099	5.59659	5.55042	5.4857	5.38543	5.23282	5.09735	4.99053	4.84627	4.67917	4.66505	4.71595	4.7718	4.87169	4.93949	4.98212	5.02159	5.05687	5.06696	4.89262	4.79959	4.59403	4.44352	4.3516	4.30568	4.3065	4.35704	4.45193	4.56772	4.69099	4.79337	4.80679	4.7854	4.71334	4.62274	4.57292	4.50977	4.44409	4.38696	4.30448	4.26119	4.2442	4.21796	4.1886	4.08105	4.10122	4.17105	4.22167	4.26093	4.29456	4.32562	4.33607	4.34812	4.36013	4.41016	4.40761	4.385	4.34278	4.28483	4.34265	4.32551	4.28745	4.28123	4.24159	4.14211	4.11193	4.0837	4.13189	4.13085	4.11677	4.1014	4.0725	4.03719	3.98057	3.98902	4.06682	4.12586	4.1846	4.2283	4.24403	4.26878	4.29438	4.31272	4.32714	4.30683	4.2943	4.28367	4.27234	4.26066	4.23417	4.23663	4.24103	4.22637	4.20911	4.21815	4.2011	4.19816	4.14789	4.10784	4.03642	3.98504	4.00417	4.02397	4.0382	4.07833	4.10513	4.13589	4.1409	4.10989	4.05842	4.04189	4.02151	4.03199	4.03104	4.04605	4.0318	4.02249	4.00323	3.98558	3.97226	3.95908	3.936	3.89754	3.86509	3.85322	3.85725	3.84848	3.84823	3.87321	3.88028	3.88471	3.95001	3.97197	3.97756	3.99055	4.00383	4.01558	4.03104	4.04677	4.05953	4.0641	4.04361	4.06756	4.11906	4.09034	4.06518	3.99873	3.99163	3.98699	3.95705	3.95315	3.96991	3.97948	3.98852	4.00078	4.01016	4.01646	4.02591	4.02782	4.03418	4.01723	4.00345	3.99325	3.97401	3.98435	3.97879	3.93667	3.90009	3.86635	3.84515	3.81781	3.81672	3.79681	3.78438	3.78305	3.78321	3.77633	3.77059	3.78669	3.81905	3.8247	3.77749	3.73637	3.7229	3.71058	3.73364	3.73448	3.7541	3.78576	3.82039	3.85279	3.89043	3.88305	3.85299	3.84083	3.84308	3.83894	3.86079	3.89714	3.92166	3.91094	3.91537	3.90892	3.89445	3.90523	3.91609	3.87882	3.84659	3.80951	3.77923	3.74943	3.72605	3.70374	3.73714	3.73449	3.73733	3.74849	3.75411	3.7636	3.77197	3.77741	3.79208	3.79196	3.817	3.82355	3.82696	3.87744	3.94221	4.00325	4.07186	4.13747	4.19895	4.24536	4.24892	4.25123	4.22911	4.18711	4.13297	4.09087	4.06255	4.0572	4.05921	4.05655	4.07107	4.05285	3.96955	3.87216	3.78633	3.6883	3.58919	3.53758	3.54898	3.53532	3.58204	3.64918	3.70892	3.78294	3.8655	3.94169	3.96217	3.95957	3.96277	3.98655	4.00761	3.99488	3.99201	3.99331	3.96875	3.91655	3.90751	3.90624	3.90372	3.86191	3.90694	3.96262	4.01896	4.07396	4.12897	4.16375	4.20942	4.26729	4.29836	4.34395	4.36783	4.37402	4.36847	4.35746	4.36181	4.35882	4.35924	4.36821	4.39037	4.39982	4.39406	4.37813	4.38412	4.38431	4.38077	4.33701	4.31606	4.31704	4.34672	4.35057	4.33894	4.30863	4.28938	4.23239	4.17402	4.11195	4.06345	4.02603	3.99841	3.95736	3.91326	3.87507	3.8311	3.83599	3.88935	3.92691	3.99397	4.0859	4.10054	4.10012	4.08679	4.09536	4.08148	4.1098	4.13575	4.17475	4.21078	4.25794	4.30274	4.34363	4.33086	4.31085	4.2845	4.28839	4.30208	4.31078	4.33937	4.36425	4.3776	4.3726	4.37681	4.36797	4.35423	4.35485	4.3519	4.34313	4.33894	4.33865	4.32524	4.27972	4.24794	4.19019	4.05477	4.00628	3.95301	3.92211	3.90027	3.87349	3.83643	3.83312	3.85056	3.88257	4.02095	4.06131	4.09137	4.11804	4.10201	4.08395	4.0605	3.97035	3.95322	3.96482	3.95804	3.97494	3.9538	3.91711	3.878	3.85264	3.85588	3.8688	3.87845	3.89824	3.90749	3.9526	3.97765	3.99443	4.02027	4.03744	4.06395	4.0897	4.07072	4.05125	4.00534	3.95968	3.91215	3.86467	3.82244	3.78103	3.76188	3.80492	4.03739	4.0488	4.04449	4.04701	3.90617	3.79738	4.0561	4.0564	4.09091	4.10378	4.12324	3.9495	3.88352	3.9088	3.94938	3.98725	4.0305	4.06997	4.1166	4.1579	4.20212	4.24106	4.2787	4.287	4.26484	4.27361	4.27147	4.27722	4.29281	4.32178	4.35297	4.36283	4.33403	4.3002	4.25302	4.20278	4.11472	4.0627	4.0477	4.03415	4.02172	4.0157	4.07739	4.04161	3.9728	3.91799	3.87937	3.85226	3.8395	3.82649	3.82674	3.83445	3.87354	3.92584	4.01386	4.06056	4.11828	4.17329	4.22034	4.25401	4.27786	4.24698	4.1942	4.15341	4.14249	4.06927	3.89975	3.59296
20	0	4.7552	4.72645	4.6878	4.6639	4.60586	4.50564	4.44807	4.44713	4.45415	4.46847	4.48606	4.50442	4.49047	4.47712	4.46526	4.45281	4.44225	4.45429	4.44079	4.42529	4.40746	4.3656	4.29351	4.30152	4.305	4.33386	4.32386	4.31343	4.3025	4.29366	4.28496	4.27789	4.27167	4.26661	4.26312	4.26036	4.25988	4.26156	4.25411	4.26029	4.27027	4.26256	4.29332	4.32725	4.36315	4.39896	4.43964	4.47896	4.52004	4.56144	4.59691	4.58851	4.57678	4.56048	4.52124	4.48616	4.46226	4.44572	4.37956	4.31531	4.25628	4.24219	4.25245	4.28089	4.30667	4.35122	4.38429	4.3874	4.40144	4.40592	4.40518	4.40886	4.41737	4.4333	4.46373	4.49529	4.49395	4.47163	4.45536	4.44537	4.4423	4.4256	4.41385	4.40001	4.38732	4.3763	4.36319	4.3493	4.3503	4.33982	4.31931	4.30544	4.29088	4.28116	4.27208	4.26079	4.25321	4.2466	4.24062	4.2414	4.24262	4.24521	4.25695	4.26594	4.28294	4.30252	4.32158	4.32297	4.30625	4.29668	4.27971	4.30646	4.33718	4.43207	4.49046	4.51657	4.5006	4.46792	4.44947	4.42392	4.4196	4.43748	4.45526	4.46853	4.43021	4.31306	4.21306	4.16057	4.11876	4.08934	4.08207	4.06053	4.15364	4.17368	4.1668	4.18046	4.18976	4.21184	4.21862	4.24782	4.2908	4.31549	4.35218	4.32424	4.33902	4.35672	4.3452	4.32175	4.3029	4.22668	4.10414	4.10476	4.1138	4.20401	4.21448	4.19578	4.17197	4.12653	4.08923	4.07299	4.06889	4.09339	4.14495	4.20317	4.24897	4.23763	4.28965	4.33932	4.37326	4.40464	4.43199	4.47083	4.49381	4.53211	4.53943	4.5458	4.53098	4.54845	4.51724	4.4866	4.45381	4.41714	4.38029	4.32008	4.2507	4.23196	4.21531	4.20483	4.19768	4.18318	4.1675	4.15064	4.18858	4.20917	4.22435	4.24323	4.2634	4.28935	4.31323	4.3443	4.37101	4.40537	4.43094	4.46439	4.49293	4.53755	4.56981	4.54914	4.50414	4.44219	4.39159	4.32579	4.38755	4.45677	4.53195	4.60026	4.66508	4.72483	4.7782	4.82329	4.87314	4.88741	4.8897	4.86079	4.79366	4.66396	4.57508	4.47271	4.3797	4.29957	4.20571	4.14139	4.06965	4.02436	4.00729	3.99561	4.01834	4.04968	4.09407	4.14596	4.19433	4.26294	4.32638	4.38496	4.44795	4.51132	4.57547	4.63823	4.67411	4.65806	4.61258	4.55161	4.48309	4.40888	4.33643	4.27385	4.25177	4.40905	4.3877	4.42665	4.44711	4.4486	4.42379	4.37293	4.30166	4.24274	4.162	4.14721	4.15326	4.25972	4.37736	4.50823	4.55012	4.53431	4.51032	4.48564	4.44764	4.41453	4.37587	4.33	4.27466	4.27734	4.2754	4.26619	4.28007	4.28799	4.29446	4.33111	4.35889	4.42126	4.46108	4.50603	4.53653	4.53512	4.52288	4.47635	4.37832	4.25926	4.18482	4.11192	4.05	4.00157	4.01735	4.05668	4.10692	4.00625	3.88382	3.77354	3.64062	3.67489	3.70954	3.76749	3.82379	3.89234	3.95939	4.02265	4.11993	4.1538	4.16507	4.13091	4.0898	4.06722	4.09603	4.13051	4.17269	4.16852	4.15795	4.14476	4.11346	4.08188	4.05111	4.02551	3.99975	3.97708	3.95963	3.94326	3.93222	3.92664	3.91887	3.92148	3.94522	3.99239	4.02737	4.07146	4.119	4.16623	4.21544	4.2644	4.30566	4.34385	4.37848	4.33964	4.26187	4.19459	4.12989	4.07656	4.03713	3.9724	3.8976	3.90393	3.91054	3.93255	3.96591	3.99599	3.98769	3.98209	4.09452	4.1886	4.2914	4.35919	4.31026	4.25173	4.20536	4.17779	4.22275	4.31671	4.39931	4.47395	4.52093	4.56103	4.56815	4.56072	4.53861	4.51781	4.49887	4.48641	4.48762	4.47951	4.48788	4.4816	4.48605	4.486	4.49231	4.49686	4.50367	4.51298	4.51306	4.51839	4.52253	4.52512	4.53965	4.56391	4.57465	4.6279	4.68484	4.74809	4.8037	4.83611	4.86386	4.89262	4.85884	4.79525	4.72843	4.66521	4.60047	4.53956	4.48155	4.42494	4.39706	4.4071	4.42041	4.4277	4.45587	4.47196	4.51505	4.56194	4.62918	4.70199	4.75283	4.75297	4.76675	4.77735	4.79684	4.80911	4.82544	4.84494	4.86551	4.88282	4.90999	4.92169	4.93122	4.94473	4.95652	4.97007	4.95914	4.96806	4.97128	4.99077	5.0053	5.05138	5.1008	5.16131	5.27717	5.37196	5.4922	5.60371	5.72751	5.84587	5.99462	6.10444	6.22304	6.34123	6.43842	6.55395	6.68485	6.82735	6.98684	7.16448	7.35764	7.66579	7.91772	8.17095	8.365	8.60667	8.86458	9.23459	9.65943	10.1099	10.5407	10.9794	11.4527	12.006	12.8373	13.772	14.7436	15.9524	17.2538	18.8396	20.5961	22.4749	24.5076	27.2111	30.9064	35.4479	41.7061	46.6	56.3818	66.8695	81.1828	105.656	129.941	148.164	192.468	219.181	233.33	219.535	185.059	161.759	129.854	102.431	82.2079	66.3356	54.8379	46.962	39.3265	32.8521	31.5636	26.5192	24.9683	22.1076	19.4836	17.5885	16.1343	14.7807	14.4045	13.5563	12.897	12.0806	11.2147	10.5289	9.90548	9.32966	8.82825	8.44449	8.13491	7.90166	7.66046	7.43722	7.23727	7.05193	6.89446	6.75615	6.65374	6.57475	6.50657	6.4224	6.33922	6.25155	6.14734	6.03205	5.89537	5.73786	5.52245	5.29794	5.02228	4.85594	4.75651	4.73948	4.76387	5.00978	5.0656	5.12122	5.01482	5.04797	5.18799	5.20946	5.18946	5.13396	5.08016	4.99945	4.94959	4.93565	4.93134	4.93181	4.89354	4.87055	4.84346	4.83412	4.83487	4.82832	4.82575	4.81607	4.80521	4.79681	4.78328	4.75413	4.71828	4.6893	4.6558	4.62197	4.58494	4.54535	4.47958	4.39614	4.26695	4.15149	4.11984	4.1247	4.14577	4.18883	4.24847	4.22898	4.15738	4.27092	4.36925	4.41815	4.40677	4.35229	4.23393	4.12743	4.04921	3.9745	3.89923	3.84765	3.84385	3.80958	3.74494	3.76303	3.79454	3.85721	3.94632	3.97633	4.00205	4.02	4.03682	4.04723	4.05089	4.06097	4.05764	4.04853	4.04044	4.00654	3.9847	3.96994	3.94665	3.92919	3.90892	3.90588	3.86427	3.85781	3.84618	3.84252	3.83795	3.87086	3.91049	3.88653	3.85557	3.82467	3.80238	3.75285	3.77056	3.79872	3.82696	3.93505	3.96751	4.00984	4.0436	4.12752	4.15435	4.1539	4.14994	4.14063	4.06621	3.97225	3.86983	3.76685	3.64916	3.65545	3.67007	3.62654	3.58535	3.55352	3.53723	3.51003	3.52282	3.55867	3.61079	3.67106	3.70609	3.72542	3.77886	3.80725	3.83928	3.85242	3.86382	3.8738	3.87633	3.90207	3.93159	3.95823	3.9393	3.91937	3.90377	3.88217	3.8569	3.84027	3.82791	3.81955	3.81382	3.80888	3.81171	3.80965	3.81571	3.83034	3.83361	3.86635	3.86605	3.87013	3.86532	3.8639	3.8559	3.85017	3.83943	3.82781	3.81916	3.80971	3.79673	3.78802	3.80198	3.78573	3.76791	3.75643	3.75112	3.74646	3.77768	3.78856	3.79735	3.80698	3.81571	3.82413	3.83213	3.84039	3.84841	3.85812	3.87772	3.88737	3.89858	3.90962	3.92219	3.93442	3.94861	3.96172	3.97584	3.98885	4.00424	3.98229	3.96797	3.93985	3.91318	3.89675	3.86968	3.88748	3.91319	3.95059	3.98457	4.04392	4.07744	4.11314	4.13076	4.14041	4.14791	4.13855	4.0731	4.08698	4.10419	4.11885	4.12884	4.16347	4.18789	4.21518	4.24093	4.26978	4.24479	4.21015	4.19182	4.13045	4.06493	3.96848	3.94873	3.94238	3.93795	4.07611	4.14665	4.18664	4.21336	4.23946	4.25972	4.22386	4.14477	4.07666	4.00248	3.93849	3.86426	3.77719	3.70511	3.62957	3.59828	3.66762	3.72921	3.78871	3.86029	3.93361	4.00563	4.08085	4.15757	4.22532	4.25643	4.24795	4.239	4.23083	4.22425	4.2182	4.2164	4.21836	4.22447	4.30356	4.35664	4.35412	4.3158	4.27584	4.2301	4.18512	4.1324	4.09024	4.04645	4.00587	3.96683	3.92563	3.89018	3.87123	3.8805	3.89109	3.90459	3.90101	3.94423	3.99023	4.04162	4.06552	4.08744	4.08667	4.07713	4.07089	4.06108	4.05399	4.04468	4.03757	4.02898	4.02223	4.01447	4.00799	4.00122	3.99456	3.98907	3.96296	3.9444	3.92844	3.91558	3.90046	3.91554	3.92765	3.93591	3.93742	3.94305	3.94349	3.94998	3.96084	3.9723	3.99501	4.01777	4.04498	4.06378	4.05244	4.05055	4.07513	4.0973	4.10561	3.96988	3.75552	3.63776	3.73441	3.94157	4.17988	4.24409	4.23658	4.23184	4.22703	4.22689	4.2251	4.22926	4.23889	4.24943	4.26787	4.27819	4.26777	4.17868	4.08402	3.98502	3.88687	3.82302	3.75306	3.71277	3.66275	3.64108	3.60986	3.60034	3.58523	3.58467	3.61091	3.61226	3.60374	3.59627	3.58698	3.57693	3.56722	3.55778	3.55004	3.45132	3.49527	3.54613	3.60362	3.75839	3.84999	3.9575	4.05666	4.1503	4.24075	4.29761	4.2926	4.26222	4.22983	4.1992	4.1559	4.11946	4.07309	4.03806	3.97906	3.92382	3.93397	3.93909	4.00288	4.02214	4.03826	4.08342	4.09718	4.02411	4.00999	4.00521	3.98852	3.9792	4.02243	4.01556	4.00774	3.99575	3.98492	3.95492	3.93222	3.91446	3.89943	3.88805	3.86879	3.86465	3.87654	3.89013	3.94154	3.96961	4.00703	4.04091	4.07436	4.10403	4.1368	4.16357	4.17827	4.20561	4.23661	4.25704	4.23338	4.19702	4.16177	4.09102	4.03097	3.97392	3.92855	3.86537	3.82657	3.79543	3.80083	3.80362	3.90768	3.98487	4.04672	4.10936	4.18174	4.21993	4.24616	4.17389	4.09014	3.99339	3.88761	3.77453	3.6606	3.57551	3.48094	3.41087	3.44238	3.49407	3.54031	3.60932	3.68061	3.7505	3.81945	3.88484	3.92544	3.93957	3.91256	3.90759	3.87861	3.82954	3.78637	3.67474	3.54779	3.4264	3.28772	3.16561	3.00766
20	20	4.99636	5.06621	5.03541	5.00596	4.90724	4.80527	4.78291	4.76138	4.76163	4.73338	4.75059	4.77209	4.79549	4.812	4.82921	4.8423	4.85829	4.87804	4.88636	4.87972	4.90756	4.91374	4.91877	4.92271	4.92664	4.92977	4.93286	4.94841	4.94684	4.93086	4.92642	4.93803	4.93136	4.92673	4.91639	4.90592	4.89304	4.88349	4.87736	4.8684	4.86152	4.84809	4.84248	4.83433	4.83178	4.74718	4.4269	4.09431	4.15136	4.28246	4.55141	4.83548	4.83756	4.83658	4.844	4.84665	4.8392	4.85158	4.85378	4.84974	4.85147	4.84919	4.84986	4.84982	4.85209	4.8516	4.85771	4.85425	4.84809	4.84118	4.80829	4.80323	4.7988	4.79297	4.78826	4.78514	4.77968	4.75379	4.79065	4.79357	4.78629	4.80861	4.82749	4.85247	4.89285	4.92052	4.94959	4.97944	4.93012	4.87096	4.78397	4.68603	4.58691	4.46906	4.46055	4.47475	4.50125	4.5408	4.58941	4.64856	4.6634	4.63163	4.59729	4.57397	4.57772	4.61292	4.61515	4.6266	4.64869	4.64249	4.66242	4.66606	4.68918	4.67262	4.64254	4.64982	4.65423	4.67233	4.6879	4.70909	4.73906	4.76383	4.78514	4.80446	4.82262	4.83183	4.8403	4.80296	4.70085	4.60328	4.48284	4.46654	4.53205	4.57571	4.58011	4.5264	4.49885	4.47957	4.4594	4.53111	4.63732	4.80885	4.89995	4.95808	4.9199	4.87903	4.8418	4.77233	4.69599	4.62256	4.56364	4.50724	4.47671	4.45181	4.43916	4.48404	4.5254	4.57839	4.63045	4.69384	4.75666	4.75871	4.76668	4.76225	4.77675	4.76332	4.74875	4.70365	4.65452	4.61189	4.58018	4.54964	4.52189	4.49657	4.47499	4.46496	4.47025	4.4754	4.49031	4.51545	4.52825	4.56901	4.57985	4.58723	4.59918	4.60678	4.60492	4.602	4.59598	4.60648	4.61415	4.62357	4.61683	4.63653	4.65703	4.68085	4.74358	4.76238	4.81382	4.84263	4.8771	4.91539	4.86509	4.77807	4.69504	4.59638	4.50646	4.40912	4.3992	4.54587	4.65997	4.77767	4.83461	4.60141	4.66499	4.74977	4.83154	4.91414	4.98891	5.05472	5.10523	5.14894	5.15688	5.16697	5.16542	5.13183	5.07191	5.0432	5.01844	4.99582	4.97441	4.97572	4.9661	4.97511	4.95592	4.94696	4.92781	4.87785	4.92508	4.95405	4.96531	4.93852	4.89563	4.86363	4.83293	4.80342	4.7805	4.75119	4.74674	4.74918	4.78548	4.79735	4.82253	4.83387	4.85307	4.86419	4.86916	4.89182	4.87391	4.84305	4.80995	4.78212	4.75339	4.71856	4.68498	4.63827	4.59699	4.50398	4.42317	4.34816	4.31619	4.28585	4.30844	4.32446	4.34013	4.35793	4.37697	4.40336	4.36319	4.33333	4.30154	4.2518	4.24419	4.24348	4.24295	4.27556	4.29551	4.31425	4.33271	4.34418	4.35073	4.3099	4.27203	4.23588	4.19792	4.16696	4.09528	4.05694	4.13567	4.16046	4.21511	4.27986	4.34299	4.39784	4.4375	4.42876	4.41646	4.40046	4.3889	4.37163	4.36267	4.34897	4.34454	4.34242	4.31585	4.33636	4.36677	4.39763	4.43217	4.46927	4.5027	4.50954	4.48371	4.45036	4.41614	4.37595	4.33078	4.26964	4.21351	4.19403	4.17771	4.17108	4.17042	4.21704	4.23832	4.26183	4.27169	4.24752	4.22403	4.24585	4.24887	4.28824	4.33099	4.38061	4.43216	4.48147	4.53532	4.58871	4.6155	4.63987	4.66425	4.68535	4.70266	4.66264	4.63227	4.59761	4.56199	4.52935	4.49809	4.46653	4.41549	4.40706	4.39823	4.41336	4.42092	4.43311	4.44483	4.45873	4.47046	4.48263	4.49627	4.51773	4.52948	4.54121	4.5464	4.56506	4.58703	4.61232	4.63253	4.64983	4.67063	4.6825	4.69985	4.7091	4.72302	4.73737	4.74496	4.74406	4.75322	4.76059	4.77025	4.77734	4.78693	4.79328	4.80709	4.80551	4.80553	4.80226	4.79764	4.79575	4.78932	4.78431	4.80107	4.79858	4.80268	4.80155	4.80862	4.81122	4.82004	4.8252	4.82774	4.84404	4.87621	4.90609	4.91908	4.94151	4.95765	4.97407	4.99053	5.00653	5.02166	5.03111	5.0462	5.06189	5.07957	5.10466	5.12945	5.15612	5.20067	5.23369	5.27116	5.30897	5.34856	5.38538	5.42538	5.45257	5.38543	5.30567	5.19842	5.17102	5.1554	5.22036	5.26317	5.31959	5.39066	5.46394	5.55561	5.65029	5.7251	5.74635	5.75998	5.80507	5.83331	5.86456	5.91043	5.98009	6.05575	6.14048	6.24746	6.36776	6.50951	6.6678	6.82936	7.02597	7.22595	7.43301	7.60783	7.78816	7.98319	8.18412	8.3923	8.60586	8.83525	9.08235	9.38914	9.69656	10.0179	10.4029	10.8249	11.3061	11.8397	12.642	13.4615	14.3627	15.2806	16.2088	17.4018	18.9423	20.8712	23.1207	25.6806	28.6587	31.6045	35.0746	40.3845	46.3979	54.2035	65.1558	77.4923	95.8995	117.793	150.777	190.243	209.214	249.298	249.335	229.539	196.189	161.991	135.358	108.618	85.4412	71.2905	59.6783	53.566	38.5671	34.9416	31.6965	28.5074	25.7543	22.7085	20.504	18.6918	17.2635	16.1059	15.0443	14.1038	13.2869	12.4823	11.7192	11.0452	10.4552	9.95041	9.51388	9.11445	8.83051	8.574	8.35789	8.17127	8.01313	7.93599	7.83888	7.75293	7.67162	7.59413	7.51441	7.41836	7.32107	7.20548	7.0727	6.95353	6.83979	6.74022	6.60678	6.46792	6.35134	6.22378	6.09855	5.98777	5.87417	5.77197	5.68722	5.60434	5.54101	5.51184	5.48198	5.4626	5.43542	5.41706	5.40104	5.3738	5.36802	5.36331	5.36264	5.36096	5.34656	5.32364	5.30684	5.28434	5.26303	5.23858	5.21438	5.19017	5.16143	5.13383	5.10116	5.06996	5.03471	5.00094	4.96533	4.93465	4.91581	4.90247	4.88743	4.92189	4.9972	5.00186	4.98778	4.96755	4.95365	4.91312	4.84304	4.78361	4.72013	4.67927	4.59264	4.50052	4.4616	4.42614	4.35702	4.32323	4.29298	4.26634	4.24608	4.22623	4.21414	4.20035	4.1933	4.18165	4.20214	4.21664	4.23717	4.25372	4.27336	4.29173	4.31054	4.3286	4.34594	4.36539	4.38357	4.40128	4.43229	4.42351	4.40994	4.38618	4.32955	4.29336	4.25343	4.22478	4.19692	4.1622	4.14541	4.14171	4.1607	4.17017	4.18704	4.20802	4.22783	4.2533	4.2776	4.30406	4.3304	4.35552	4.38266	4.40543	4.43094	4.44997	4.47265	4.47834	4.4946	4.50348	4.50876	4.51115	4.51513	4.50775	4.461	4.43162	4.45208	4.46344	4.43631	4.41132	4.38004	4.35075	4.31722	3.44508	4.23483	4.0274	4.06653	4.13027	4.16206	4.21225	4.25195	4.29607	4.34804	4.40607	4.45932	4.44768	4.43918	4.42537	4.38497	4.36021	4.32597	4.29687	4.25962	4.22201	4.18388	4.1482	4.11652	4.11035	4.09331	4.04193	4.02851	4.03142	4.02468	4.0384	4.06702	4.09207	4.11798	4.15065	4.18296	4.23973	4.26611	4.2877	4.313	4.32963	4.35168	4.38153	4.3494	4.33751	4.31936	4.29663	4.27311	4.21503	4.17797	4.15556	4.13659	4.11981	4.10667	4.09519	4.08653	4.07893	4.08798	4.10908	4.11785	4.12191	4.12267	4.12621	4.09712	4.06837	4.05713	4.0712	4.07907	4.09395	4.1087	4.12458	4.14193	4.14611	4.14895	4.15363	4.15796	4.16183	4.17034	4.17119	4.19681	4.22487	4.25975	4.29131	4.32404	4.35384	4.38791	4.41615	4.43941	4.43161	4.42127	4.38572	4.35873	4.32693	4.29816	4.25301	4.20053	4.13451	4.06559	4.02343	3.99717	3.99565	4.03177	4.06339	4.14291	4.21188	4.28134	4.34024	4.39992	4.45259	4.48648	4.50824	4.52887	4.52796	4.52234	4.52241	4.50193	4.48628	4.43728	4.38037	4.25519	4.09896	3.98042	3.87429	3.79145	3.74708	3.94586	4.16519	4.28925	4.27978	4.26962	4.26219	4.25493	4.25085	3.921	3.79127	3.8455	4.11767	4.29523	4.45345	4.50274	4.53657	4.57188	4.60302	4.63427	4.66368	4.68956	4.70865	4.72618	4.74148	4.717	4.65723	4.5753	4.46385	4.48885	4.43826	4.4029	4.36003	4.33601	4.31058	4.29647	4.2923	4.29419	4.35101	4.39324	4.45606	4.46637	4.43136	4.31023	4.23581	4.17249	4.12723	4.09743	4.08084	4.17052	4.22209	4.27788	4.08501	3.85361	4.31346	4.41009	4.51797	4.51566	4.50092	4.53926	4.55766	4.52066	4.46048	4.40249	4.36207	4.33734	4.30596	4.29482	4.28553	4.28184	4.28969	4.28379	4.24092	4.21443	4.20163	4.20338	4.19616	4.19006	4.18857	4.22232	4.24548	4.26241	4.26552	4.27105	4.2662	4.26421	4.2351	4.21257	4.1892	4.15774	4.12171	4.09581	4.05768	4.02374	3.98547	3.9806	3.98908	4.01604	4.05023	4.10373	4.18064	4.23479	4.28693	4.30079	4.25275	4.18326	4.18584	4.13164	4.07348	4.02913	4.00524	3.97693	3.97444	4.00622	4.03807	4.10124	4.15521	4.21916	4.25774	4.30877	4.34777	4.37731	4.39729	4.41715	4.43262	4.4427	4.45845	4.46486	4.47308	4.46643	4.45156	4.43407	4.4188	4.39136	4.37116	4.34611	4.32485	4.31368	4.29466	4.27303	4.24857	4.2401	4.22192	4.2179	4.21693	4.21888	4.22725	4.27657	4.30084	4.3201	4.34345	4.33935	4.28636	4.22663	4.15937	4.11921	4.08517	4.14805	4.20357	4.2687	4.31772	4.36099	4.40404	4.43076	4.45408	4.51588	4.55353	4.58808	4.59763	4.6339	4.66439	4.7034	4.67943	4.63837	4.61966	4.5754	4.53218	4.48834	4.44534	4.40189	4.36928	4.40163	4.42802	4.46098	4.49874	4.48109	4.47099	4.47884	4.48702	4.50272	4.53161	4.55367	4.57564	4.59921	4.63187	4.63472	4.61056	4.5739	4.53722	4.49725	4.45797	4.38172	4.31681	4.28289	4.24765	4.22039	4.21234	4.24028	4.24624	4.26123	4.27906	4.29515	4.31497	4.33333	4.35645	4.37419	4.39849	4.41306	4.42994	4.42354	4.41371	4.41474	4.42136	4.40859	4.34238	4.48697
