Acq. time (s)=	4
Accumulations=	3
Range=	Off
Autofocus=	At all XY pixels
SWIFT=	Off
AutoExposure=	Off
Spike filter=	Multiple accum.
Delay time (s)=	0
Binning=	1
Readout mode=	Signal
DeNoise=	Standard
ICS correction=	On
Dark correction=	Off
Inst. Process=	Off
Instrument=	LabRAM S3000
Detector=	Synapse
Objective=	x100
Grating=	1800
ND Filter=	25%
Laser (nm)=	632.81 
Spectro (cm-¹)=	521.228
Slit=	100.021
Hole=	199.981
Microscope=	Principal
StageXY=	Märzhauser
StageZ=	Märzhauser
Z (µm)=	-393.7
Project=	
Sample=	
Site=	
Title=	SOP_200nm_furu_p0.2
Remark=	
Date=	14.06.2019 10:58
Operator=	
Acquired=	14.06.2019 10:58:20
		358.285	358.609	358.934	359.26	359.585	359.909	360.235	360.56	360.886	361.21	361.535	361.859	362.185	362.51	362.834	363.16	363.485	363.809	364.135	364.459	364.784	365.108	365.434	365.758	366.083	366.407	366.733	367.057	367.381	367.705	368.03	368.355	368.68	369.004	369.328	369.652	369.978	370.302	370.626	370.95	371.274	371.598	371.923	372.248	372.572	372.896	373.22	373.544	373.868	374.192	374.516	374.84	375.164	375.49	375.813	376.137	376.461	376.785	377.109	377.433	377.757	378.081	378.404	378.728	379.052	379.376	379.699	380.023	380.347	380.671	380.994	381.318	381.642	381.965	382.288	382.611	382.935	383.258	383.582	383.906	384.229	384.553	384.876	385.2	385.522	385.845	386.169	386.492	386.816	387.139	387.463	387.785	388.108	388.431	388.755	389.078	389.402	389.723	390.047	390.37	390.693	391.015	391.338	391.662	391.985	392.307	392.63	392.953	393.276	393.598	393.921	394.244	394.566	394.889	395.212	395.535	395.857	396.18	396.503	396.825	397.148	397.471	397.792	398.115	398.437	398.76	399.083	399.404	399.727	400.049	400.372	400.694	401.016	401.339	401.66	401.983	402.304	402.627	402.95	403.271	403.594	403.915	404.238	404.559	404.882	405.203	405.526	405.847	406.17	406.491	406.814	407.135	407.456	407.778	408.1	408.422	408.743	409.066	409.387	409.708	410.03	410.351	410.674	410.995	411.316	411.638	411.959	412.282	412.602	412.923	413.246	413.567	413.888	414.21	414.531	414.852	415.174	415.495	415.815	416.136	416.458	416.779	417.1	417.421	417.743	418.064	418.384	418.705	419.027	419.348	419.668	419.989	420.311	420.632	420.952	421.273	421.593	421.914	422.236	422.556	422.877	423.197	423.518	423.838	424.16	424.481	424.801	425.121	425.442	425.762	426.083	426.403	426.723	427.044	427.365	427.686	428.006	428.326	428.647	428.967	429.287	429.607	429.927	430.248	430.568	430.888	431.208	431.528	431.848	432.169	432.489	432.809	433.129	433.449	433.769	434.088	434.408	434.728	435.048	435.368	435.688	436.008	436.327	436.647	436.967	437.287	437.606	437.926	438.245	438.565	438.885	439.205	439.523	439.843	440.163	440.483	440.802	441.121	441.44	441.76	442.08	442.4	442.718	443.037	443.357	443.677	443.995	444.315	444.634	444.954	445.272	445.591	445.911	446.229	446.549	446.868	447.186	447.506	447.825	448.143	448.463	448.782	449.1	449.419	449.739	450.057	450.376	450.695	451.013	451.333	451.65	451.97	452.288	452.607	452.926	453.244	453.563	453.881	454.2	454.518	454.837	455.155	455.474	455.792	456.111	456.428	456.748	457.065	457.384	457.702	458.021	458.338	458.658	458.975	459.294	459.612	459.929	460.248	460.566	460.884	461.202	461.519	461.838	462.156	462.475	462.792	463.109	463.428	463.746	464.063	464.382	464.699	465.016	465.335	465.652	465.97	466.288	466.606	466.923	467.242	467.559	467.876	468.193	468.512	468.829	469.146	469.463	469.782	470.099	470.416	470.733	471.05	471.369	471.686	472.003	472.32	472.637	472.954	473.272	473.589	473.906	474.223	474.54	474.857	475.174	475.492	475.809	476.126	476.442	476.759	477.076	477.393	477.71	478.026	478.343	478.66	478.977	479.293	479.61	479.928	480.245	480.562	480.878	481.195	481.512	481.828	482.145	482.461	482.777	483.093	483.41	483.726	484.043	484.359	484.676	484.992	485.309	485.625	485.942	486.258	486.575	486.889	487.206	487.522	487.839	488.155	488.471	488.788	489.104	489.419	489.735	490.051	490.368	490.684	490.999	491.315	491.631	491.947	492.264	492.578	492.895	493.211	493.527	493.842	494.158	494.474	494.79	495.104	495.421	495.737	496.051	496.367	496.683	496.998	497.314	497.63	497.944	498.26	498.576	498.891	499.206	499.522	499.837	500.153	500.469	500.783	501.099	501.413	501.729	502.043	502.359	502.675	502.989	503.305	503.619	503.935	504.249	504.565	504.879	505.195	505.509	505.825	506.139	506.454	506.769	507.084	507.398	507.714	508.028	508.343	508.658	508.973	509.287	509.601	509.917	510.231	510.546	510.86	511.174	511.489	511.803	512.119	512.433	512.747	513.062	513.376	513.69	514.005	514.319	514.633	514.948	515.262	515.576	515.891	516.204	516.518	516.832	517.147	517.461	517.775	518.088	518.403	518.717	519.031	519.344	519.659	519.973	520.287	520.6	520.914	521.229	521.542	521.856	522.169	522.483	522.797	523.111	523.425	523.738	524.052	524.365	524.679	524.992	525.305	525.62	525.934	526.247	526.56	526.874	527.187	527.5	527.814	528.127	528.44	528.753	529.067	529.38	529.693	530.006	530.32	530.633	530.946	531.259	531.572	531.885	532.198	532.512	532.825	533.138	533.451	533.764	534.077	534.39	534.702	535.015	535.328	535.641	535.953	536.266	536.579	536.892	537.204	537.517	537.83	538.142	538.455	538.768	539.08	539.392	539.705	540.018	540.331	540.642	540.955	541.268	541.58	541.893	542.204	542.517	542.83	543.141	543.454	543.766	544.079	544.39	544.703	545.015	545.327	545.639	545.952	546.263	546.575	546.888	547.199	547.511	547.824	548.135	548.447	548.76	549.071	549.383	549.694	550.007	550.319	550.63	550.942	551.253	551.565	551.876	552.189	552.5	552.812	553.123	553.435	553.746	554.058	554.369	554.681	554.992	555.304	555.615	555.927	556.237	556.55	556.86	557.172	557.483	557.795	558.106	558.416	558.728	559.039	559.351	559.662	559.972	560.284	560.595	560.905	561.217	561.528	561.838	562.15	562.46	562.771	563.083	563.393	563.704	564.015	564.326	564.636	564.947	565.258	565.569	565.879	566.189	566.501	566.811	567.122	567.432	567.743	568.054	568.364	568.674	568.984	569.296	569.606	569.916	570.226	570.536	570.847	571.158	571.468	571.778	572.088	572.398	572.708	573.018	573.329	573.639	573.95	574.26	574.57	574.88	575.19	575.5	575.81	576.12	576.429	576.739	577.049	577.359	577.669	577.979	578.289	578.598	578.908	579.218	579.528	579.837	580.147	580.457	580.767	581.076	581.386	581.694	582.004	582.314	582.623	582.933	583.242	583.552	583.862	584.171	584.479	584.789	585.098	585.408	585.718	586.027	586.335	586.645	586.954	587.263	587.573	587.881	588.19	588.5	588.809	589.119	589.426	589.736	590.045	590.354	590.662	590.972	591.281	591.589	591.898	592.207	592.515	592.824	593.134	593.441	593.751	594.06	594.367	594.677	594.986	595.294	595.603	595.912	596.219	596.528	596.836	597.145	597.454	597.762	598.071	598.378	598.687	598.995	599.304	599.611	599.92	600.228	600.537	600.846	601.153	601.462	601.77	602.077	602.386	602.693	603.002	603.309	603.618	603.926	604.234	604.542	604.85	605.158	605.465	605.774	606.081	606.39	606.697	607.004	607.313	607.62	607.927	608.236	608.543	608.85	609.159	609.466	609.773	610.081	610.389	610.696	611.004	611.311	611.618	611.925	612.234	612.541	612.848	613.155	613.463	613.77	614.077	614.384	614.691	614.999	615.306	615.613	615.92	616.227	616.535	616.842	617.149	617.456	617.762	618.069	618.376	618.684	618.991	619.298	619.604	619.911	620.218	620.524	620.831	621.138	621.444	621.751	622.058	622.366	622.672	622.979	623.286	623.592	623.899	624.205	624.512	624.818	625.125	625.431	625.738	626.044	626.349	626.656	626.962	627.269	627.575	627.881	628.188	628.494	628.8	629.107	629.413	629.719	630.024	630.331	630.637	630.943	631.25	631.556	631.861	632.167	632.473	632.779	633.085	633.392	633.696	634.003	634.309	634.615	634.919	635.226	635.532	635.838	636.142	636.448	636.754	637.06	637.365	637.671	637.977	638.282	638.588	638.894	639.198	639.504	639.81	640.114	640.42	640.726	641.031	641.337	641.642	641.947	642.253	642.557	642.863	643.169	643.473	643.779	644.083	644.389	644.693	644.999	645.305	645.609	645.914	646.219	646.524	646.829	647.134	647.438	647.744	648.048	648.354	648.658	648.962	649.268	649.572	649.877	650.181	650.487	650.791	651.095	651.4	651.704	652.01	652.314	652.618	652.923	653.227	653.533	653.836	654.14	654.446	654.75	655.054	655.357	655.663	655.967	656.27	656.576	656.879	657.183	657.488	657.792	658.096	658.4	658.705	659.009	659.312	659.616	659.92	660.225	660.529	660.832	661.136	661.44	661.745	662.048	662.352	662.655	662.959	663.263	663.566	663.871	664.175	664.478	664.782	665.085	665.389	665.692	665.996	666.299	666.602	666.906	667.209	667.514	667.817	668.121	668.424	668.728	669.031	669.334	669.638	669.941	670.244	670.547	670.851	671.154	671.456	671.759	672.062	672.365	672.669	672.972	673.275	673.578	673.881	674.184	674.487	674.791	675.092	675.395	675.698	676.002	676.305	676.608	676.911	677.212	677.515	677.818	678.121	678.424	678.726	679.029	679.332
-20	-20	3.74958	3.82211	3.82486	3.84644	3.84576	3.86944	3.86626	3.8717	3.87056	3.8683	3.81465	3.83268	3.85644	3.84612	3.82968	3.81296	3.83479	3.8498	3.87287	3.90385	3.94486	3.99096	4.03449	4.08557	4.13093	4.1758	4.19168	4.18549	4.17071	4.15537	4.14287	4.12754	4.1092	4.07457	4.08032	4.09598	4.08674	4.05844	4.03471	4.03101	4.00457	3.95858	3.91903	3.87903	3.83505	3.83107	3.82571	3.85182	3.87002	3.8959	3.9368	3.96716	4.00145	4.02171	4.04888	4.06718	4.09156	4.11812	4.1114	4.04191	4.02076	3.99453	3.96737	3.94461	3.92298	3.90271	3.90099	3.87468	3.85862	3.86991	3.85735	3.8015	3.76735	3.75175	3.75484	3.74346	3.72574	3.71586	3.70793	3.69531	3.68864	3.6961	3.70761	3.72	3.74086	3.75633	3.78213	3.80418	3.83426	3.86558	3.89681	3.9449	3.96019	3.87733	3.79124	3.72097	3.62604	3.71014	3.79842	3.85274	3.89875	3.94821	3.99433	3.97426	3.94348	3.92091	3.87582	3.87392	3.92155	3.91934	3.97297	3.97508	3.93754	3.74517	4.08597	4.07512	4.05845	4.04315	4.02667	4.01749	3.99629	4.01049	4.02904	4.01891	4.00365	3.9887	3.97127	3.95721	3.93509	3.95372	3.96281	3.99964	3.99034	3.97489	3.95071	3.92738	3.90401	3.8756	3.84954	3.81911	3.80197	3.77515	3.70366	3.69929	3.70615	3.71067	3.72696	3.7444	3.81681	3.88165	3.9181	3.95295	3.98399	4.01612	4.04106	4.06862	4.08796	4.10099	4.10981	4.12	4.11088	4.10031	4.08603	4.07269	4.06182	4.05611	4.06358	4.06073	4.04544	4.03389	4.03314	4.01332	3.99349	3.97142	3.9507	3.92928	3.9087	3.88851	3.87621	3.85803	3.83831	3.82122	3.80826	3.79255	3.78619	3.77177	3.83455	3.83356	3.834	3.83546	3.83784	3.8335	3.8361	3.83176	3.83406	3.83106	3.80991	3.78968	3.76977	3.80115	3.8325	3.84508	3.85451	3.88331	3.92378	3.9613	4.00875	4.05357	4.10516	4.15949	4.21326	4.28766	4.32805	4.36357	4.41155	4.40338	4.39431	4.3585	4.31874	4.2876	4.25037	4.21774	4.18385	4.15375	4.12249	4.11145	4.13916	4.14939	4.10432	4.06235	4.04224	4.02595	4.01181	3.99035	3.94313	3.89259	3.86327	3.87144	3.91402	3.9643	3.99553	4.03631	3.9885	3.92019	3.83199	3.84108	3.82475	3.83373	3.82815	3.71947	3.72289	3.70919	3.70411	3.68816	3.68679	3.66507	3.82492	3.82573	3.81719	3.75707	3.74127	3.72278	3.70317	3.68777	3.64096	3.65007	3.66434	3.67324	3.67883	3.71992	3.7669	3.8007	3.82738	3.80286	3.75255	3.74975	3.76929	3.79003	3.86699	3.95035	3.97563	3.98106	3.97127	3.96332	3.94699	3.93478	3.91389	3.89648	3.8739	3.8516	3.82698	3.79911	3.77303	3.74018	3.7135	3.67952	3.64554	3.60677	3.57058	3.534	3.48336	3.47349	3.47749	3.47796	3.51679	3.52992	3.52973	3.52219	3.51699	3.51086	3.50516	3.5008	3.49963	3.49858	3.49811	3.50784	3.51282	3.47756	3.5159	3.55919	3.60917	3.65619	3.76102	3.81679	3.82256	3.84497	3.86095	3.93348	3.97532	4.02614	4.07213	4.12546	4.17524	4.18506	4.18172	4.17863	4.17571	4.17486	4.17555	4.17339	4.17122	4.16734	4.16298	4.15599	4.14954	4.13762	4.11894	4.11417	4.11113	4.10071	4.07794	4.05115	4.04599	4.02505	3.99611	3.96797	3.93804	3.91469	3.88621	3.86115	3.83741	3.81675	3.79597	3.77475	3.76787	3.72659	3.75026	3.77809	3.81556	3.95751	4.00947	3.9813	3.95587	3.92784	3.90425	3.86697	3.85083	3.8327	3.81736	3.80569	3.80545	3.82553	3.85347	3.85211	3.84984	3.84933	3.84598	3.84329	3.83975	3.83762	3.81223	3.79336	3.78442	3.78836	3.79735	3.8165	3.83155	3.83852	3.89401	3.91182	3.91127	3.88688	3.88182	3.89125	3.91332	3.92938	3.9446	3.96688	4.00842	4.01077	4.00328	3.99455	4.02141	3.9895	3.93192	3.84375	3.79794	3.77059	3.7713	3.85674	3.89467	3.9227	3.94491	3.96393	3.99034	4.02468	4.05132	4.09121	4.09525	3.98634	3.90935	3.85402	3.83039	3.74721	3.85135	3.94133	4.04363	4.05443	4.06745	4.08884	4.16152	4.21118	4.2684	4.32542	4.38763	4.4504	4.50761	4.54007	4.53614	4.5263	4.51671	4.46707	4.4358	4.38345	4.35548	4.32655	4.24212	4.19916	4.20326	4.20879	4.23066	4.32964	4.44685	4.59237	4.73454	4.86966	4.87584	4.8503	4.79596	4.76569	4.76498	4.80272	4.88491	5.00466	5.15128	5.32734	5.52849	5.74639	5.83393	5.95739	6.21763	6.54208	6.90704	7.43958	7.92884	8.38467	9.12861	9.76067	10.5964	11.6105	12.9725	14.7037	18.1747	19.4899	21.2475	25.9921	28.8764	38.9527	47.9357	61.0741	66.5997	78.9832	85.7877	79.364	66.1169	58.459	49.3905	35.5389	30.9837	26.5998	21.0491	17.9109	15.6985	14.6352	12.3356	11.7346	10.2972	9.66057	9.13612	8.5129	7.97487	7.55155	7.15009	6.81342	6.549	6.33566	6.15877	6.02307	5.91238	5.82377	5.73384	5.62829	5.52927	5.42209	5.34776	5.28522	5.23726	5.18834	5.13261	5.08112	5.03195	4.98822	4.91597	4.84315	4.76914	4.6986	4.63228	4.56597	4.50753	4.44239	4.36824	4.33247	4.3021	4.25978	4.20648	4.16978	4.12644	4.10793	4.08197	4.06054	4.05946	4.04233	4.0241	4.00969	4.01819	4.00675	3.96282	3.94297	3.92212	3.89053	3.88526	3.88223	3.88138	3.87899	3.84923	3.84303	3.85165	3.85608	3.86946	3.88432	3.90189	3.9262	3.94883	3.96581	3.95022	3.93364	3.88251	3.83416	3.78583	3.68982	3.62055	3.56723	3.51563	3.49146	3.45535	3.42485	3.38671	3.3657	3.38033	3.39629	3.4233	3.48191	3.52706	3.56656	3.59983	3.64982	3.67527	3.70945	3.72825	3.75435	3.70409	3.70503	3.69127	3.66663	3.67025	3.64321	3.66083	3.63071	3.60399	3.61933	3.63512	3.72311	3.77964	3.86094	3.89902	3.92832	3.95265	3.94859	3.91543	3.87269	3.82486	3.79063	3.76031	3.72982	3.71246	3.68936	3.69845	3.67116	3.657	3.63659	3.61817	3.61064	3.59821	3.59517	3.59022	3.60008	3.61984	3.63445	3.65463	3.66939	3.68451	3.70678	3.72734	3.76559	3.81827	3.94848	3.95507	3.94943	3.94411	3.92854	3.73964	3.59634	3.53302	3.50012	3.48916	3.49676	3.53599	3.5983	3.66564	3.72589	3.75831	3.79139	3.82313	3.83441	3.77672	3.74118	3.75383	3.73314	3.68935	3.70642	3.7518	3.82614	3.88483	3.92726	3.90312	3.87056	3.84432	3.81955	3.79412	3.76883	3.696	3.69637	3.70127	3.70869	3.72197	3.73826	3.72633	3.69985	3.65565	3.72845	3.8232	3.89054	3.90161	3.87182	3.81723	3.74642	3.67544	3.54641	3.5144	3.44784	3.42218	3.3705	3.34131	3.34548	3.38177	3.41411	3.45077	3.4898	3.52826	3.56737	3.60572	3.6452	3.67706	3.71117	3.72215	3.73728	3.74284	3.72679	3.72088	3.72415	3.71629	3.6998	3.70629	3.71373	3.74418	3.75771	3.75927	3.76084	3.75985	3.75473	3.75482	3.7482	3.74792	3.72826	3.7226	3.73069	3.73509	3.74484	3.73713	3.74422	3.76547	3.78074	3.80922	3.83949	3.85684	3.87528	3.89418	3.90489	3.89924	3.89479	3.86481	3.8354	3.8014	3.76843	3.7323	3.69772	3.65885	3.62435	3.59177	3.55163	3.52751	3.50856	3.49521	3.49442	3.51437	3.49882	3.48801	3.46488	3.46889	3.52978	3.55347	3.58564	3.61622	3.65535	3.69159	3.72808	3.76281	3.78948	3.81431	3.84105	3.86872	3.89567	3.92171	3.92006	3.90359	3.91144	3.91499	3.91949	3.92855	3.90265	3.90691	3.89949	3.86765	3.83003	3.78793	3.74967	3.71011	3.67293	3.63697	3.6014	3.56799	3.53402	3.50315	3.47472	3.44851	3.42665	3.43305	3.42435	3.41564	3.41241	3.40485	3.40028	3.3959	3.39541	3.3947	3.3986	3.40041	3.40722	3.41036	3.41796	3.4224	3.43017	3.43742	3.42692	3.39666	3.3811	3.36032	3.35548	3.3551	3.37949	3.40736	3.44164	3.47221	3.51928	3.58089	3.64708	3.71918	3.79021	3.8614	3.93154	3.97314	4.00104	4.0098	3.99853	3.91867	3.84818	3.75302	3.66177	3.55438	3.4686	3.39477	3.47416	3.52419	3.72079	3.7476	3.64744	3.67491	3.69936	3.7419	3.80112	3.93474	3.90419	3.88692	3.86952	3.84056	3.84587	3.83097	3.79469	3.76114	3.73608	3.70712	3.73697	3.77642	3.81713	3.85505	3.89262	3.93578	3.96843	3.9952	4.01236	4.0259	4.01553	3.99981	3.96783	3.92752	3.89021	3.84724	3.80678	3.77489	3.73848	3.71196	3.67387	3.63286	3.59403	3.55078	3.55326	3.54149	3.55744	3.57507	3.58439	3.61483	3.64622	3.68282	3.72867	3.75868	3.77122	3.79051	3.81765	3.81387	3.81116	3.80446	3.79624	3.78501	3.75665	3.71521	3.68464	3.65571	3.62854	3.59503	3.54421	3.50644	3.50121	3.52029	3.5504	3.56538	3.60367	3.63849	3.67682	3.69822	3.71774	3.73392	3.75186	3.76577	3.78026	3.78721	3.78503	3.77273	3.7588	3.76642	3.78062	3.78111	3.76425	3.74178	3.73238	3.70747	3.68687	3.66441	3.64287	3.6229	3.60342	3.57974	3.56186	3.53976	3.49562	3.47172	3.46752	3.47988	3.49998	3.52031	3.56961	3.60731	3.65362	3.69725	3.72366	3.74127	3.7465	3.75283	3.71957	3.6494	3.57295	3.50745	3.5884	3.64005	3.69701	3.75508	3.8142	3.87342	3.91997	3.93468	3.93387	3.92475	3.91436	3.88183	3.8503	3.79957	3.78166	3.76555	3.76241	3.79043	3.80757	3.79448	3.79838	3.78096	3.73782	3.69348	3.64768	3.60135	3.55483	3.50846	3.46324	3.41934	3.37727	3.33753	3.30063	3.26639	3.31299	3.32681	3.38058	3.40773	3.41665	3.41223	3.36005	3.29584	3.23818
-20	0	3.38471	3.63716	3.81149	4.02852	4.13319	4.23645	4.31227	4.34746	4.36065	4.34487	4.31332	4.28147	4.26905	4.25186	4.24353	4.26512	4.2955	4.32278	4.35567	4.38578	4.41942	4.45097	4.45969	4.46426	4.45378	4.42613	4.40143	4.37652	4.3516	4.32482	4.30095	4.2756	4.25385	4.23096	4.21241	4.19285	4.17848	4.16962	4.1588	4.14995	4.14367	4.13776	4.11937	4.10421	4.14087	4.14405	4.15229	4.15705	4.17358	4.18743	4.20146	4.22036	4.21872	4.19727	4.15988	4.07034	4.02784	3.98942	3.9561	3.91985	3.90676	3.89832	3.94888	4.00506	4.04361	4.08449	4.12765	4.12315	4.12922	4.13279	4.14185	4.14642	4.15144	4.12714	4.1144	4.09613	4.04729	4.05813	4.07577	4.11832	4.15914	4.19474	4.2343	4.26472	4.30052	4.32218	4.29876	4.29381	4.29472	4.29082	4.29114	4.28881	4.28925	4.28854	4.28713	4.28685	4.27791	4.27224	4.26704	4.26599	4.26129	4.26307	4.27094	4.28044	4.2842	4.29939	4.30844	4.31781	4.32809	4.33626	4.34383	4.35612	4.36206	4.35191	4.34054	4.32927	4.31857	4.30831	4.26161	4.22884	4.2031	4.17124	4.14376	4.11172	4.08968	4.05979	4.05643	4.05884	4.06492	4.111	4.10101	4.0791	4.06234	4.04629	4.03696	4.06367	4.08983	4.11338	4.14015	4.18042	4.18069	4.17571	4.16367	4.16216	4.14221	4.13925	4.13141	4.12743	4.12073	4.11396	4.12791	4.11112	4.09165	4.05297	4.04763	4.01479	4.0087	4.01796	4.02513	4.02171	4.0229	4.03856	4.05993	4.07826	4.10353	4.13729	4.1696	4.15352	4.13258	4.11384	4.09756	4.0841	4.0741	4.0676	4.06461	4.06504	4.07495	4.08884	4.11084	4.1242	4.13468	4.14902	4.13562	4.11072	4.08093	4.0532	4.03526	4.01489	3.99613	3.9814	4.03223	4.07796	4.12803	4.18178	4.23439	4.29006	4.3456	4.38239	4.39439	4.41799	4.42979	4.43928	4.4464	4.45119	4.45369	4.45401	4.45249	4.44919	4.4398	4.42136	4.40065	4.35514	4.30241	4.2366	4.10376	4.02121	3.94187	3.88871	3.83213	3.91814	3.99119	4.08125	4.18338	4.2683	4.34258	4.40099	4.40927	4.42252	4.4342	4.45058	4.46553	4.48471	4.50271	4.51522	4.5122	4.49324	4.47024	4.44681	4.42281	4.42526	4.41535	4.41191	4.40023	4.38937	4.3725	4.35806	4.33907	4.32411	4.30464	4.28946	4.27163	4.25778	4.24873	4.24656	4.26461	4.27785	4.31891	4.35401	4.35022	4.35351	4.30317	4.23397	4.14602	4.05094	3.96575	3.91146	3.88276	3.82697	3.8649	3.90711	3.96879	4.01579	4.10724	4.20514	4.21422	4.22278	4.22164	4.24541	4.24666	4.25085	4.24829	4.25349	4.25393	4.24684	4.23873	4.23151	4.21415	4.20022	4.18314	4.18146	4.14519	4.12375	4.09963	4.07698	4.05741	4.03496	4.01555	3.97443	3.97116	3.96969	3.97163	3.97306	4.0011	4.01662	4.02863	4.04612	4.0731	4.08412	4.09604	4.105	4.1072	4.09206	4.05432	4.03882	4.01173	3.9931	3.97463	3.95896	3.94369	3.93051	3.91848	3.90818	3.90013	3.89272	3.88605	3.86734	3.8551	3.83931	3.82604	3.81689	3.79912	3.81098	3.833	3.85617	3.88241	3.92174	3.94147	3.95839	3.986	4.00097	4.02236	4.05704	4.0584	4.06001	4.05887	4.05725	3.99657	3.97128	3.95166	3.92929	3.9102	3.82923	3.83725	3.85032	3.91044	3.93628	3.95784	3.98915	4.01618	4.04273	4.0703	4.0957	4.12159	4.12341	4.11418	4.1061	4.09991	4.095	4.09244	4.09115	4.09261	4.09523	4.10098	4.10758	4.11719	4.12752	4.14044	4.15317	4.16026	4.17773	4.18724	4.16785	4.15207	4.1336	4.11499	4.10611	4.08872	4.05784	4.06744	4.07664	4.12882	4.21894	4.26201	4.30619	4.34787	4.39549	4.47055	4.49354	4.52325	4.52802	4.50682	4.49134	4.47642	4.42094	4.39001	4.35551	4.33066	4.29827	4.26748	4.23248	4.22343	4.21894	4.2181	4.22047	4.27691	4.29833	4.34424	4.37617	4.41585	4.43559	4.45271	4.47499	4.49594	4.5198	4.54374	4.56849	4.57494	4.543	4.50146	4.45545	4.4121	4.36499	4.32485	4.34829	4.37206	4.41459	4.49371	4.63312	4.78776	4.82891	4.88408	4.89463	4.74026	4.69509	4.79459	4.92927	4.97619	4.98951	4.99487	5.0033	5.01643	5.03685	5.06508	5.09774	5.14407	5.21329	5.27845	5.40381	5.50766	5.60746	5.71076	5.82068	5.94954	6.06809	6.19822	6.32279	6.46297	6.58659	6.71985	6.83936	6.99543	7.18377	7.40312	7.67312	7.98329	8.25968	8.58799	9.04994	9.4859	9.98442	10.5408	11.1871	11.8953	12.9831	14.037	15.4661	16.9156	18.7361	20.8357	23.4196	26.5978	30.9267	35.82	41.5676	51.2586	61.074	73.224	88.3369	118.511	141.299	158.481	168.253	161.135	141.953	116.701	98.9192	75.7107	61.9859	48.0939	41.7776	35.3953	30.2819	26.2605	23.079	20.2699	18.0607	16.2377	14.7908	13.6517	12.7973	12.0667	11.4378	10.8317	10.2613	9.59796	9.04094	8.7094	8.36082	8.07513	7.72855	7.41747	7.18971	7.00118	6.83818	6.69157	6.56831	6.46779	6.37089	6.19683	6.02996	5.87687	5.70247	5.62915	5.59049	5.55543	5.53062	5.49993	5.46563	5.43705	5.41332	5.37551	5.3431	5.27986	5.20838	5.1226	5.03114	4.918	4.79685	4.74497	4.74523	4.71553	4.63001	4.57277	4.51807	4.46797	4.42217	4.38522	4.34438	4.37028	4.377	4.39092	4.42399	4.45232	4.34308	4.30787	4.32316	4.3146	4.29924	4.28188	4.32252	4.24598	4.13449	3.98994	3.99049	4.03029	4.07675	4.1724	4.25363	4.29522	4.29894	4.29835	4.29542	4.29066	4.28319	4.2734	4.23606	4.17992	4.12364	4.08224	4.04235	4.00328	3.95364	3.89957	3.86003	3.82855	3.78604	3.73944	3.70184	3.6982	3.95192	3.92465	3.90648	3.8956	3.88185	3.87867	3.8704	3.85166	3.83399	3.82932	3.82567	3.82639	3.8282	3.85095	3.86012	3.87523	3.888	3.90488	3.90015	3.86207	3.82225	3.78614	3.76349	3.71993	3.72165	3.73693	3.76691	3.7915	3.8156	3.844	3.8696	3.8805	3.91132	3.91087	3.87544	3.84742	3.81511	3.78121	3.72815	3.67983	3.63701	3.59867	3.57625	3.56551	3.60562	3.66772	3.72308	3.78756	3.84935	3.91486	3.97953	4.03028	4.03997	4.04074	4.02094	3.99785	3.97589	3.94276	3.92085	3.90098	3.87282	3.84897	3.84198	3.83767	3.82551	3.82145	3.81391	3.8169	3.81716	3.82017	3.82425	3.82889	3.77595	3.76389	3.75601	3.78466	3.79614	3.8169	3.82108	3.80938	3.76289	3.72239	3.71421	3.70535	3.70157	3.69746	3.69908	3.73091	3.74538	3.76662	3.82321	3.81419	3.7993	3.78761	3.75169	3.73292	3.70161	3.67956	3.65608	3.63525	3.61414	3.59718	3.58074	3.56608	3.56521	3.56228	3.55383	3.53579	3.52203	3.5101	3.50817	3.52098	3.53475	3.54807	3.56156	3.58145	3.57533	3.60622	3.64685	3.68741	3.72651	3.76789	3.80817	3.85008	3.88845	3.9285	3.96367	4.00057	4.02717	4.03662	3.9252	3.85082	3.76802	3.66579	3.5833	3.48299	3.44729	3.46218	3.45625	3.46201	3.46884	3.4249	3.35223	3.28483	3.2331	3.19144	3.40036	3.53824	3.70015	3.85862	3.92866	3.90901	3.88611	3.86218	3.83776	3.8106	3.78296	3.75477	3.72557	3.69616	3.6695	3.62111	3.61282	3.59202	3.67987	3.7241	3.75776	3.79408	3.8342	3.87556	3.91039	3.9453	3.99402	4.0229	4.03555	4.04538	4.05497	4.06233	4.0452	4.01855	3.99022	3.96218	3.93476	3.89567	3.87229	3.83978	3.83727	3.8384	3.83922	3.84859	3.86787	3.88569	3.90622	3.91621	3.93505	3.95233	3.97421	3.98064	3.97472	3.97209	3.966	3.96604	3.9676	3.97841	3.98724	4.00102	3.98888	3.97916	3.99353	3.97148	3.96048	3.94395	3.94079	3.93164	3.93641	3.93604	3.95932	3.9923	4.00781	3.9769	3.95103	3.92459	3.89855	3.84083	3.77253	3.70876	3.68412	3.73089	3.74175	3.78394	3.79447	3.84967	3.90358	4.04391	4.09475	4.11404	4.14962	4.17322	4.1689	4.10706	4.05194	3.99029	3.94583	3.92304	3.90341	3.92398	3.91048	3.86708	3.83117	3.79277	3.76286	3.74246	3.74225	3.74034	3.74526	3.74517	3.74863	3.75401	3.76448	3.76407	3.77482	3.77061	3.75987	3.75329	3.74159	3.71189	3.68828	3.66639	3.64744	3.62369	3.58321	3.62656	3.65945	3.71495	3.7585	3.80836	3.85825	3.90528	3.94402	3.9896	4.00782	4.01912	4.00747	3.99379	3.98227	3.96868	3.95465	3.90403	3.84397	3.77893	3.71769	3.69156	3.73385	3.77439	3.83436	3.88724	3.90867	3.91273	3.92045	3.922	3.92508	3.93726	3.92173	3.91147	3.88383	3.88997	3.8939	3.8994	3.89293	3.95339	3.94971	3.90027	3.88823	3.88267	3.87822	3.90316	3.92265	3.94135	3.9633	3.95166	3.94134	3.92615	3.90963	3.90644	3.90709	3.90951	3.91451	3.92228	3.93192	3.94569	3.96989	3.99279	4.01712	4.03511	4.04826	4.0613	4.07282	4.08489	4.09135	4.09652	4.103	4.1091	4.1172	4.13949	4.1491	4.15792	4.1681	4.1728	4.17164	4.17215	4.18034	4.176	4.16823	4.16045	4.15086	4.14053	4.12523	4.11046	4.09399	4.05871	4.01083	3.94844	3.92133	3.89415	3.87012	3.8475	3.82701	3.80818	3.79059	3.77606	3.76257	3.78697	3.78529	3.78666	3.80446	3.79602	3.76883	3.72649	3.68792	3.64537	3.51448	3.4543	3.37912	3.37447	3.37555	3.38111	3.39407	3.40837	3.49289	3.55109	3.62461	3.68904	3.75443	3.76919	3.76794	3.7769	3.79741	3.82755	3.9034	3.9351	3.96304	3.97565	3.9844	3.99885	4.00968	3.99527	3.98904	3.93712	3.88301	3.82598	3.78514	3.76826	3.77442	3.83845	4.15234
-20	20	3.89413	4.20261	4.2556	4.26246	4.26401	4.27364	4.28019	4.29152	4.3012	4.31238	4.32413	4.29714	4.27175	4.25024	4.23321	4.20961	4.16096	4.16356	4.16415	4.17179	4.18657	4.19821	4.21517	4.22918	4.25018	4.29211	4.30416	4.31283	4.32302	4.33031	4.33683	4.34553	4.3091	4.29821	4.28119	4.27719	4.27534	4.27583	4.2772	4.28267	4.28777	4.29453	4.30132	4.31023	4.31987	4.34884	4.36992	4.39817	4.41743	4.44013	4.45514	4.47931	4.48927	4.50311	4.51648	4.51428	4.51397	4.5037	4.46041	4.40247	4.33933	4.26974	4.20819	4.14495	4.09162	4.04801	4.00865	3.99019	4.01965	4.00603	4.01459	4.04489	4.13044	4.2511	4.30247	4.29178	4.27178	4.19515	4.21769	4.26831	4.30967	4.34034	4.39302	4.43419	4.44684	4.45714	4.4679	4.46734	4.46577	4.46254	4.4562	4.44473	4.4368	4.43375	4.41233	4.39471	4.37936	4.36931	4.35539	4.34492	4.32898	4.32461	4.31512	4.31118	4.306	4.3055	4.30265	4.30823	4.31862	4.34695	4.38029	4.46041	4.45747	4.43813	4.42362	4.39343	4.34801	4.31084	4.304	4.28482	4.2682	4.24509	4.21055	4.13934	4.09261	4.08001	4.08515	4.10226	4.11489	4.15438	4.18324	4.22031	4.25987	4.31034	4.35592	4.41227	4.44082	4.47511	4.50919	4.51346	4.49045	4.4682	4.48142	4.4277	4.42578	4.41511	4.39174	4.37328	4.35172	4.33566	4.31623	4.30278	4.28588	4.27556	4.26165	4.25498	4.23125	4.19941	4.18786	4.19354	4.20407	4.22019	4.2501	4.25966	4.27802	4.29177	4.31394	4.31123	4.30943	4.30795	4.32278	4.33502	4.33885	4.33969	4.34538	4.35181	4.37126	4.42713	4.46751	4.48515	4.48363	4.41247	4.30756	4.25071	4.17655	4.07423	4.08048	4.09063	4.22155	4.3007	4.39213	4.46887	4.55681	4.60725	4.6382	4.64387	4.6517	4.65215	4.51462	4.42344	4.46016	4.53228	4.58737	4.5495	4.52415	4.48616	4.45465	4.41524	4.31159	4.21796	4.1465	4.09618	4.04584	4.03107	4.01678	4.03103	4.0913	4.15472	4.22347	4.28766	4.3439	4.40344	4.46337	4.50724	4.53227	4.5496	4.53447	4.51444	4.50399	4.47131	4.44224	4.41523	4.38209	4.35228	4.32962	4.34752	4.36569	4.3932	4.42619	4.45173	4.50778	4.58005	4.63027	4.65753	4.68527	4.70976	4.73878	4.76258	4.74506	4.70005	4.64113	4.56697	4.48261	4.41771	4.35011	4.33642	4.31531	4.31499	4.30672	4.308	4.31292	4.32086	4.34284	4.37301	4.38202	4.35345	4.32496	4.2963	4.26824	4.23961	4.20567	4.16674	4.13258	4.07965	4.07267	4.06593	4.06758	4.07723	4.08712	4.10661	4.16658	4.19967	4.22459	4.26451	4.2779	4.29349	4.30745	4.31955	4.32855	4.33835	4.33174	4.335	4.30455	4.27842	4.24985	4.22283	4.18314	4.12848	4.07722	4.02698	3.97501	3.9285	3.88941	3.83767	3.8423	3.84506	3.94297	4.00118	4.06573	4.08676	4.05546	4.00563	3.91656	3.74928	3.72528	3.72803	3.77769	3.95697	4.05312	4.13165	4.19864	4.24141	4.2368	4.20728	4.18495	4.15524	4.15116	4.12448	4.07058	4.01852	3.97055	3.92778	3.89485	3.90112	3.9413	3.95369	3.9115	3.8782	3.84192	3.80005	3.80913	3.81611	3.86031	3.94039	3.96575	4.01709	4.06201	4.08325	4.08846	4.10014	4.13766	4.21265	4.26713	4.2919	4.28704	4.25532	4.23141	4.19661	4.18065	4.15273	4.13491	4.11292	4.08479	4.04836	4.03721	4.04625	4.06664	4.08175	4.13601	4.17428	4.21687	4.2538	4.28458	4.26986	4.25424	4.23667	4.21966	4.20233	4.18697	4.18266	4.17079	4.16395	4.16153	4.15475	4.1467	4.14234	4.13727	4.13735	4.13547	4.14299	4.14773	4.16737	4.18449	4.22239	4.29652	4.34826	4.39598	4.42966	4.44017	4.41618	4.39671	4.37836	4.32522	4.2902	4.39909	4.41206	4.42367	4.43421	4.45403	4.4674	4.48333	4.48277	4.45921	4.41601	4.37683	4.35669	4.3457	4.3512	4.35332	4.3932	4.44204	4.47415	4.51135	4.55851	4.76011	4.90291	5.01422	4.78703	4.78634	4.79437	4.76555	4.72709	4.68222	4.6318	4.58633	4.54728	4.55201	4.57882	4.64391	4.73701	4.77739	4.82993	4.79978	4.79992	4.83139	4.86635	4.92045	4.97686	5.05112	5.12738	5.21856	5.25944	5.31099	5.36615	5.40064	5.45276	5.51459	5.59094	5.67074	5.78696	5.91136	6.09629	6.27992	6.47578	6.67505	6.88663	7.03042	7.17717	7.327	7.48857	7.6583	7.84017	8.03432	8.24311	8.5223	8.80442	9.12194	9.47443	9.87586	10.3284	11.0765	11.6832	12.5499	13.5676	14.589	15.9277	17.4683	19.4303	21.6606	24.4213	27.5032	31.4183	35.5989	41.2297	48.4158	60.3642	71.7316	98.0738	118.448	137.121	159.717	167.549	165.114	138.769	127.843	94.944	80.2287	57.1381	52.3654	41.0435	35.7885	31.7544	28.1168	24.4894	21.7729	19.4501	17.2585	15.8529	14.4648	13.4335	12.5285	11.6074	10.9222	10.3198	9.81021	9.3319	8.99001	8.70601	8.4854	8.23578	7.96315	7.49933	7.23988	6.99806	6.77926	6.5949	6.44656	6.3153	6.19251	6.05106	5.90485	5.81031	5.76165	5.73225	5.69624	5.64416	5.69029	5.65473	5.59477	5.53885	5.48496	5.43866	5.32753	5.18526	5.03962	4.93633	4.8525	4.787	4.73003	4.67054	4.63686	4.64341	4.67072	4.70594	4.76722	4.80798	4.82367	4.83132	4.83361	4.81428	4.76407	4.71359	4.66418	4.61323	4.56537	4.52012	4.507	4.49604	4.53949	4.5585	4.57554	4.53125	4.5048	4.483	4.45933	4.44693	4.43194	4.42518	4.41678	4.41048	4.40641	4.40205	4.40061	4.39723	4.39456	4.39032	4.37539	4.34289	4.31104	4.27813	4.24824	4.21457	4.20709	4.19133	4.16953	4.14323	4.11838	4.08833	4.02434	3.96887	3.91587	3.86735	3.83792	3.94133	4.01166	4.24089	4.23878	4.20999	4.11915	4.07021	4.04674	4.09093	4.11479	4.10238	4.09335	4.10409	4.11365	4.13265	4.09091	4.00957	3.94125	3.90134	3.86506	3.83767	3.80792	3.81052	3.84134	3.86423	3.89971	3.94377	3.87493	3.82257	3.88542	3.96594	4.04546	4.07389	4.09933	4.11522	4.09601	4.04898	4.00056	3.96976	3.96024	3.97134	3.9533	3.94683	3.93459	3.89977	3.86018	3.82104	3.78143	3.74269	3.70354	3.66508	3.61762	3.56571	3.51433	3.47598	3.41445	3.332	3.33421	3.34195	3.35718	3.37722	3.40276	3.42943	3.47352	3.51752	3.5611	3.59664	3.61985	3.64322	3.65359	3.67928	3.70534	3.73304	3.7593	3.78708	3.81397	3.8424	3.87139	3.9001	3.93001	3.96049	3.99224	4.01931	4.05317	4.06917	4.08523	4.09722	4.1082	4.07385	4.07216	4.06424	4.05938	4.05172	4.04335	4.03547	4.02758	4.02275	4.00993	4.00441	3.99513	3.98061	3.9631	3.96075	3.94986	3.94663	3.91675	3.87604	3.83413	3.79107	3.75018	3.70766	3.67077	3.63265	3.59144	3.56426	3.53489	3.5356	3.54604	3.62964	3.68962	3.74797	3.809	3.78897	3.77139	3.74617	3.77101	3.79477	3.84026	3.87393	3.91111	3.93148	3.95387	3.97051	3.98571	3.95741	3.94834	3.93452	3.93076	3.93417	4.00023	4.01871	4.05136	4.05207	4.02559	3.99608	3.94863	3.8067	3.63012	3.42962	3.95083	4.0271	4.06251	4.07858	4.08142	4.07005	4.04349	4.00492	3.96063	3.92309	3.89742	3.853	3.79409	3.71494	3.62511	3.55704	3.50876	3.47534	3.54776	3.60738	3.6689	3.75484	3.81688	3.87429	3.91807	3.93722	3.96957	3.9882	4.02965	4.02872	4.02784	4.01844	3.99163	3.95559	3.93994	3.93179	3.92348	3.92055	3.92004	3.92435	3.92859	3.95542	3.9696	3.98891	4.00679	4.0205	4.03926	4.04487	4.04787	4.04426	4.04913	4.03032	4.0392	4.05384	4.06783	4.08567	4.0975	4.13347	4.15151	4.16683	4.18704	4.19885	4.20512	4.22001	4.23372	4.33077	4.39274	4.41574	4.42533	4.35291	4.27375	4.20864	4.16212	4.10212	4.04794	3.99432	3.94594	3.90212	3.81213	3.7398	3.71755	3.68057	3.65101	3.62956	3.60926	3.6003	3.59888	3.59683	3.6058	3.61422	3.63113	3.63366	3.67181	3.68862	3.6666	3.64706	3.62722	3.61735	3.60996	3.61922	3.69084	3.80578	3.96172	4.18563	4.26877	4.25526	4.18469	4.13612	4.2619	4.17435	4.33511	4.35329	4.30776	4.23914	4.18001	4.12667	4.0831	4.05871	4.04566	4.12138	4.09446	4.08642	4.02553	3.81435	3.67906	3.61386	3.68189	3.80134	3.92082	3.97379	4.02732	4.07785	4.09847	4.09988	4.10784	4.11342	4.12191	4.12827	4.13528	4.14432	4.14969	4.14608	4.13937	4.13139	4.12256	4.09381	4.07381	4.05223	4.03184	4.00507	3.9734	3.95523	3.94213	3.89819	3.86175	3.84796	3.83764	3.82872	3.82662	3.84292	3.84797	3.86094	3.87602	3.89996	3.91987	3.93816	3.96048	3.96632	3.974	3.9814	3.98368	3.9612	3.93284	3.90788	3.88772	3.86639	3.86815	3.88125	3.94309	3.99599	4.04201	4.06055	4.06131	4.05822	4.07736	4.06888	4.06126	4.05163	4.04255	4.03195	4.02112	4.00978	3.99677	3.98502	3.96919	3.95295	3.92565	3.89318	3.87954	3.86988	3.85998	3.82284	3.82776	3.83627	3.8484	3.86406	3.88308	3.90521	3.96747	4.00881	4.03816	4.07697	4.10605	4.11125	4.11366	4.06156	4.04012	4.01852	3.99338	3.9958	4.00813	4.01742	4.0611	4.0908	4.12887	4.15928	4.1941	4.2252	4.25402	4.28311	4.30401	4.3052	4.30734	4.26656	4.19986	4.13975	4.08961	4.06619	4.02986	4.02394	4.05791	4.00074	3.9966	3.99625	3.98804	3.98363	3.98441	3.95979	3.93453	3.94784	3.96897	3.97889	3.99392	3.94937	3.91691	3.87559	3.83684	3.79953	3.76581	3.68558	3.63436	3.34926
0	-20	4.67852	4.61336	4.61582	4.56401	4.30873	4.40595	4.51944	4.62191	4.62435	4.62386	4.62719	4.63071	4.63451	4.62893	4.64317	4.63535	4.62585	4.61766	4.60865	4.60073	4.58821	4.47744	4.45445	4.44563	4.48015	4.51263	4.52438	4.53927	4.53334	4.52496	4.51824	4.51053	4.50175	4.4936	4.48565	4.47804	4.47066	4.46423	4.4558	4.45564	4.45901	4.46072	4.45728	4.45683	4.45252	4.44777	4.44356	4.43565	4.43049	4.41441	4.41058	4.39152	4.39476	4.39195	4.39576	4.39685	4.40202	4.40463	4.41105	4.41623	4.4211	4.42181	4.42651	4.43073	4.4097	4.38159	4.35148	4.30193	4.21374	4.15972	4.08242	4.0178	3.96624	3.91384	3.91779	3.94915	3.97954	4.02124	4.08051	4.1329	4.21681	4.29043	4.33284	4.33143	4.326	4.19416	4.09612	4.00828	3.91727	3.85697	3.80277	3.8129	3.90067	3.98178	4.06402	4.16152	4.23554	4.29454	4.37422	4.40885	4.41372	4.40993	4.39079	4.37914	4.36523	4.35243	4.31382	4.32099	4.35145	4.40282	4.46355	4.54205	4.60797	4.62035	4.62133	4.56778	4.5311	4.48839	4.45852	4.42221	4.46357	4.44662	4.40649	4.38869	4.38476	4.37296	4.35559	4.36484	4.41562	4.42475	4.45059	4.47061	4.49324	4.52872	4.53909	4.54505	4.53447	4.51026	4.48868	4.46264	4.44402	4.4297	4.39975	4.38485	4.38202	4.38965	4.41955	4.45153	4.45472	4.45766	4.44497	4.44814	4.47096	4.48657	4.48665	4.43287	4.3621	4.29493	4.24024	4.1867	4.13359	4.13314	4.13345	4.15463	4.18079	4.21447	4.24971	4.28959	4.33726	4.40157	4.43501	4.48485	4.49606	4.47085	4.4447	4.45332	4.42747	4.39597	4.36809	4.31723	4.27719	4.24944	4.21401	4.19314	4.16164	4.16725	4.18004	4.21389	4.24887	4.29605	4.34406	4.38447	4.43194	4.49321	4.52602	4.56101	4.57869	4.57416	4.56887	4.52396	4.47483	4.45639	4.42664	4.40331	4.40397	4.4202	4.43309	4.45734	4.47874	4.55782	4.59689	4.62431	4.63833	4.6015	4.49533	4.47418	4.45367	4.44114	4.43644	4.45518	4.46804	4.48329	4.49903	4.51553	4.5342	4.55319	4.56668	4.57223	4.54555	4.50879	4.4884	4.48061	4.48061	4.47897	4.48291	4.51772	4.53016	4.55066	4.56958	4.59004	4.61665	4.65729	4.66167	4.66955	4.66991	4.67455	4.672	4.67173	4.64754	4.63959	4.62622	4.608	4.57452	4.54135	4.51309	4.45222	4.45701	4.47049	4.51624	4.55047	4.56061	4.57394	4.58548	4.59919	4.61229	4.62404	4.6356	4.65112	4.5608	4.48788	4.41814	4.35251	4.29057	4.21488	4.13474	4.05463	3.97811	3.93547	3.77344	3.84622	3.9652	4.11217	4.2636	4.42643	4.49891	4.43824	4.41651	4.39871	4.38309	4.36849	4.35973	4.38603	4.41132	4.21306	4.08622	3.96079	3.85664	3.92116	4.07021	4.13742	4.21944	4.27233	4.32775	4.36594	4.39769	4.3935	4.35517	4.3057	4.25128	4.20116	4.14722	4.1085	4.06555	4.02934	3.99449	3.97576	3.9874	4.04969	4.0902	4.13765	4.18682	4.25598	4.26736	4.24707	4.24569	4.20658	4.17955	4.1559	4.1177	4.11334	4.08513	4.08282	4.08418	4.11559	4.14482	4.17624	4.23669	4.28713	4.32352	4.36046	4.37059	4.38642	4.39438	4.40198	4.40373	4.40551	4.39953	4.39277	4.35119	4.31168	4.27096	4.23608	4.20136	4.16357	4.17715	4.17327	4.15119	4.15808	4.1681	4.15688	4.13416	4.11375	4.0931	4.01697	4.00405	3.99188	3.98608	3.99921	4.13705	4.19334	4.25001	4.30545	4.38405	4.38638	4.37758	4.32027	4.27225	4.21962	4.17786	4.13225	4.09093	4.04862	4.03108	4.03785	4.10045	4.15706	4.2347	4.30358	4.36111	4.35708	4.38533	4.43503	4.48142	4.50869	4.5218	4.49865	4.45218	4.42502	4.40572	4.36653	4.31387	4.26431	4.23681	4.28137	4.43427	4.47778	4.51024	4.54776	4.58504	4.60367	4.62674	4.59332	4.54189	4.48747	4.43462	4.37478	4.31669	4.26878	4.23111	4.22247	4.26745	4.32462	4.39465	4.47192	4.57499	4.68414	4.73069	4.77851	4.83428	4.88422	4.94497	5.00019	5.05983	5.04436	4.99402	4.88247	4.79282	4.80648	4.8317	4.85508	4.91686	4.97311	5.05208	5.09512	5.10601	5.14894	5.16895	5.20775	5.32948	5.42789	5.53773	5.62844	5.69663	5.76301	5.82598	5.8993	5.95172	6.01495	6.10608	6.19506	6.28455	6.38874	6.47759	6.55721	6.65207	6.7572	6.87294	7.05167	7.24441	7.44738	7.64288	7.84455	8.02923	8.23265	8.45246	8.69203	8.96852	9.28602	9.78779	10.235	10.7897	11.4402	12.2259	13.0713	14.0764	15.2554	16.5662	18.0229	19.7708	21.5735	23.6133	26.1622	30.5718	36.9864	41.543	51.5925	64.3608	81.6964	104.05	128.931	152.733	166.2	175.968	162.75	141.249	121.503	95.6385	80.7332	59.8507	51.7629	44.0154	36.159	32.6784	27.2835	23.8855	20.9906	18.8686	16.3446	16.2317	14.7442	13.9429	12.7373	11.8931	11.1731	10.5167	9.92474	9.3662	8.87099	8.41549	8.01028	7.60561	7.23131	6.95553	6.59846	6.38711	6.36478	6.35214	6.33706	6.33077	6.32656	6.35005	6.26555	6.16487	6.08396	6.01981	5.96831	5.91981	5.83914	5.74705	5.67468	5.60437	5.53369	5.44941	5.38175	5.35624	5.33501	5.31182	5.23015	5.1443	5.06039	4.97488	4.86961	4.78359	4.72323	4.67882	4.6494	4.64669	4.67136	4.7247	4.77791	4.75621	4.76718	4.78159	4.796	4.76358	4.70255	4.64759	4.46933	4.37953	4.32367	4.2764	4.35445	4.46564	4.57552	4.612	4.63536	4.65792	4.678	4.63134	4.58439	4.5299	4.45438	4.34694	4.25602	4.1932	4.13343	4.08294	4.04814	4.01313	4.00293	3.99086	3.97955	3.97948	4.00541	4.03392	4.0583	4.08285	4.10468	4.10896	4.10882	4.09421	4.1197	4.14095	4.16993	4.20195	4.2237	4.24598	4.26991	4.30316	4.30596	4.30123	4.2699	4.24348	4.21396	4.18364	4.14731	4.1114	4.06927	4.02805	3.98495	3.93433	3.89333	3.85181	3.82863	3.80823	3.78089	3.75899	3.74173	3.72939	3.7535	3.80139	3.90305	3.89423	3.88862	3.84902	3.81908	3.76661	3.77455	3.79832	3.84522	3.89816	3.98248	4.01214	3.98827	3.96592	3.92378	3.90007	3.86571	3.87293	3.88507	3.95752	3.99739	3.97342	3.95203	3.92998	3.90544	3.88331	3.86471	3.87211	3.88724	3.90188	3.92334	3.94644	3.97582	4.00737	4.06179	4.07465	4.09167	4.10124	4.10473	4.0551	3.96862	3.8824	3.79873	3.71973	3.65857	3.58349	3.56794	3.67997	3.7544	3.82655	3.82403	3.82251	3.83866	3.85825	3.90536	3.97662	4.03979	4.07135	4.1021	4.12427	4.13983	4.14085	4.10994	4.09176	4.0131	3.95099	3.88077	3.80047	3.72505	3.6635	3.5144	3.49629	3.4762	3.54188	3.69142	3.92305	4.03516	4.11429	4.07509	4.03564	4.00535	3.97133	3.91318	3.82582	3.74633	3.78184	3.74401	3.71051	3.69298	3.70759	3.71346	3.76267	3.8015	3.85332	3.89222	3.9232	3.94391	3.96162	3.95919	3.97228	3.93076	3.89705	3.76902	3.75367	3.75035	3.75654	3.79403	3.79964	3.80533	3.81015	3.82076	3.84647	3.87181	3.88701	3.91844	3.92877	3.93702	3.94564	3.95033	3.95547	3.96145	3.9657	3.95363	3.96805	3.97327	3.98797	3.98565	3.99846	4.01328	3.98851	3.94468	3.88491	3.83205	3.73465	3.75596	3.78414	3.81362	3.93024	3.96287	3.99373	4.02017	4.04509	4.06448	4.08067	4.0604	4.05274	4.00076	3.95142	3.88683	3.84403	3.81344	3.77915	3.75143	3.78796	3.84246	3.91564	4.02022	4.24825	4.22859	4.18126	4.12872	4.07621	4.01287	3.96456	3.90015	3.85157	3.80084	3.77332	3.74652	3.72394	3.72376	3.79411	3.84256	3.90082	3.95801	4.01941	4.079	4.14217	4.20524	4.22752	4.21513	4.18639	4.16825	4.15059	4.13313	4.1167	4.09988	4.0836	4.06722	4.04861	4.03318	4.01598	3.99513	3.97466	3.95274	3.933	3.91367	3.90054	3.89853	3.88582	3.88488	3.87664	3.91646	3.94552	3.97336	4.06668	4.11002	4.1502	4.18357	4.13587	4.10018	4.05433	4.06828	4.04173	3.96737	3.88794	3.8162	3.74342	3.68583	3.6153	3.57726	3.58336	3.60861	3.65021	3.71827	3.78417	3.87498	3.93214	3.98278	4.01533	4.04106	4.04351	4.05883	4.06975	4.083	4.11758	4.1779	4.18419	4.18988	4.22688	4.23496	4.21157	4.17251	4.0893	4.03211	3.97316	3.92237	3.84434	3.82707	3.8118	3.80807	3.84674	3.82432	3.80404	3.78972	3.78084	3.76835	3.79311	3.82206	3.8038	3.78792	3.8034	3.81722	3.83305	3.87323	3.91662	3.96875	4.01938	4.07251	4.10557	4.16203	4.19339	4.21663	4.23543	4.23891	4.23422	4.22169	4.19836	4.18247	4.1463	4.11888	4.07839	4.04207	3.9821	3.95185	3.92153	3.88144	3.85454	3.86416	3.86688	3.87517	3.88498	3.91587	3.93903	3.96334	3.98992	4.02158	4.05226	4.09567	4.10646	4.12215	4.12841	4.13705	4.12528	4.11649	4.09567	4.08228	4.06526	4.04788	4.03312	4.02203	4.00859	3.99944	3.96588	3.93056	3.89721	3.86537	3.8361	3.79275	3.74261	3.71067	3.68074	3.76305	3.85662	3.92792	4.03337	4.12948	4.20279	4.27617	4.36918	4.40108	4.43634	4.39786	4.37529	4.34548	4.25829	4.15087	4.00896	3.88489	3.79417	3.81142	3.81723	3.8331	3.85731	3.83883	3.82777	3.80827	3.79314	3.77995	3.76366	3.76085	3.76485	3.76701	3.77677	3.78564	3.7995	3.80991	3.81002	3.81271	3.81793	3.80084	3.77296	3.75555	3.76428	3.80396	3.85813	3.89764	3.93338	3.96734	3.91618	3.93889	3.95933	3.95562	3.95242	3.97086	4.00701	4.04589	4.06895	4.07933	4.12976	4.00528	3.85846	3.5954
0	0	4.06314	4.31369	4.48334	4.50373	4.513	4.51046	4.45338	4.39728	4.36396	4.33556	4.31295	4.305	4.30127	4.30475	4.31476	4.33111	4.35378	4.34898	4.37183	4.38762	4.40584	4.43338	4.46218	4.49019	4.52243	4.55266	4.58511	4.62012	4.63844	4.66019	4.68849	4.65231	4.60241	4.54744	4.48482	4.41143	4.3369	4.26251	4.18788	4.12424	4.04729	4.04679	4.05641	4.051	4.08643	4.1258	4.16678	4.20339	4.2532	4.28602	4.3244	4.35763	4.39349	4.42947	4.44076	4.48791	4.49177	4.49536	4.49394	4.46002	4.43928	4.42194	4.39407	4.37359	4.34874	4.32788	4.30265	4.28068	4.25754	4.2439	4.22439	4.20251	4.21213	4.21934	4.23175	4.24762	4.2632	4.29188	4.33982	4.35541	4.37911	4.40211	4.42254	4.4395	4.42888	4.40793	4.38447	4.35369	4.33032	4.24788	4.22916	4.19922	4.22938	4.31728	4.39104	4.41285	4.40958	4.41283	4.41992	4.42793	4.44399	4.54399	4.60002	4.63777	4.56796	4.50843	4.22354	3.90712	3.88592	3.99323	4.14344	4.01734	3.91072	3.8435	3.83748	3.85998	3.89631	3.94839	3.96557	3.93822	3.9209	3.90648	3.91189	3.91916	3.92004	3.94876	3.9801	4.03062	4.07612	4.11825	4.17188	4.22061	4.27535	4.32919	4.37579	4.40368	4.43291	4.463	4.49932	4.53834	4.58391	4.5389	4.47386	4.40898	4.33757	4.2434	4.22523	4.20916	4.15526	4.03664	3.89574	3.89917	3.98253	4.10174	4.23553	4.36469	4.46198	4.47544	4.49506	4.45548	4.4134	4.35532	4.31795	4.27189	4.27699	4.27559	4.32419	4.32037	4.2986	4.27931	4.2722	4.25188	4.26686	4.29589	4.32244	4.36361	4.39813	4.39174	4.38115	4.38353	4.37184	4.35906	4.31744	4.28738	4.26856	4.28715	4.39152	4.46037	4.49429	4.53013	4.55691	4.58158	4.60402	4.60525	4.59584	4.58389	4.53621	4.45372	4.36802	4.27756	4.21132	4.22707	4.2703	4.33096	4.41353	4.52107	4.54904	4.55704	4.57021	4.58141	4.54697	4.52358	4.5024	4.49153	4.47977	4.46982	4.47223	4.48953	4.5362	4.59009	4.65887	4.70626	4.71635	4.72234	4.72938	4.71107	4.67771	4.64296	4.61228	4.58045	4.57417	4.5611	4.55789	4.55062	4.51712	4.45976	4.44181	4.45681	4.46471	4.47985	4.50548	4.48152	4.44443	4.40421	4.35875	4.31784	4.26697	4.17876	4.15868	4.13962	4.12582	4.12011	4.11431	4.22141	4.29153	4.32082	4.33637	4.35437	4.36723	4.36134	4.31993	4.2917	4.28782	4.27684	4.28494	4.26899	4.24568	4.22503	4.20584	4.187	4.17288	4.15692	4.14693	4.1347	4.12881	4.1198	4.12668	4.12255	4.12316	4.11698	4.1076	4.1009	4.09499	4.08974	4.0429	4.02471	4.02007	4.02274	4.03534	4.04126	4.0609	4.07122	4.1039	4.12864	4.15533	4.19058	4.19786	4.21118	4.21118	4.20669	4.20468	4.19688	4.19093	4.17661	4.16764	4.15183	4.13516	4.06603	4.00276	3.90139	3.88039	3.86223	3.8727	3.88097	3.90066	3.91928	3.93466	3.94921	3.99021	4.0349	4.0819	4.10167	4.0841	4.0141	3.91601	3.83481	3.74186	3.65597	3.58768	3.51241	3.50645	3.48954	3.49417	3.49033	3.4795	3.52389	3.57336	3.62797	3.68851	3.75069	3.81864	3.88562	3.95736	4.03628	4.10256	4.17564	4.22477	4.25534	4.29712	4.32361	4.32925	4.34507	4.34923	4.36127	4.36423	4.36591	4.36283	4.34971	4.32554	4.29547	4.26677	4.24656	4.21862	4.20151	4.1764	4.1619	4.14034	4.17342	4.17892	4.17571	4.19017	4.19249	4.19221	4.18341	4.1752	4.15509	4.12672	4.07576	3.89092	3.58133	3.71459	3.96171	4.22682	4.48002	4.61098	4.64367	4.64299	4.63955	4.64217	4.55884	4.4684	4.35373	4.26515	4.19955	4.14696	4.10952	4.07563	4.03524	4.06246	4.09704	4.15056	4.20792	4.27258	4.34205	4.40404	4.43806	4.46538	4.4824	4.49236	4.50202	4.50363	4.48853	4.47991	4.46528	4.45436	4.41898	4.42997	4.44203	4.459	4.47603	4.52219	4.55077	4.58222	4.61488	4.64551	4.67417	4.69477	4.72163	4.78869	4.86266	4.89538	4.94217	4.98389	5.03561	5.05345	5.04986	5.05189	5.0848	5.07631	5.10081	5.13983	5.14036	5.12484	5.12117	5.13465	5.17771	5.2202	5.26985	5.31878	5.35656	5.38197	5.42107	5.50797	5.66218	5.79333	5.85176	5.89712	5.93562	5.97551	6.01348	6.05713	6.11839	6.30873	6.40145	6.58346	6.71778	6.91088	7.14851	7.38532	7.6828	7.99143	8.32246	8.65074	8.93744	9.37143	9.83169	10.3841	10.6591	11.0809	11.5455	12.1892	12.757	14.2452	15.1901	16.3729	16.7377	19.513	21.581	24.1916	26.652	28.5637	36.7685	41.1525	48.0259	58.2626	72.4448	89.8181	113.626	141.446	165.736	188.236	197.972	183.991	157.071	131.752	107.942	82.7243	71.5293	54.7687	47.4421	41.278	32.0817	32.6497	25.6606	22.9126	19.7634	17.7193	15.4707	14.4615	13.7953	13.1528	12.3715	11.6439	10.9781	10.3797	9.85265	9.35198	8.90474	8.51656	8.2408	7.99715	7.77432	7.57308	7.38767	7.20184	7.04955	6.88711	6.74907	6.61691	6.48865	6.36959	6.25322	6.14631	6.04151	5.94743	5.85591	5.775	5.69798	5.62996	5.56346	5.50295	5.44612	5.38963	5.33886	5.26747	5.19864	5.13381	5.07279	5.01743	4.96705	4.91806	4.87785	4.83871	4.81461	4.7999	4.79199	4.79245	4.80152	4.81957	4.8489	4.73565	4.62414	4.57959	4.54644	4.52581	4.51118	4.50681	4.50068	4.53755	4.53174	4.51809	4.50446	4.48225	4.44641	4.41815	4.35387	4.25012	4.2062	4.16497	4.12565	4.09447	4.06431	4.04384	4.06937	4.06009	4.05867	4.05436	4.04842	4.04296	4.00231	4.0043	3.98239	3.98905	3.99278	4.00193	4.01348	4.02514	4.04367	4.06049	4.08018	4.10021	4.11646	4.0775	4.03881	3.99756	3.95177	3.8972	3.88915	3.9225	3.94729	3.97003	3.99588	4.01149	4.03079	4.05377	4.07579	4.09996	4.0968	4.06545	4.03079	3.99052	3.97589	3.96449	4.03345	4.10543	4.1987	4.2234	4.19089	4.09359	3.9823	3.7866	3.76107	3.77016	3.77682	3.79711	3.8303	3.85697	3.88093	3.90551	3.91916	3.93161	3.94269	3.94897	3.93666	3.93846	3.92062	3.91404	3.90102	3.89166	3.88245	3.87428	3.86805	3.86151	3.84438	3.81473	3.78189	3.75536	3.72542	3.70193	3.67812	3.65742	3.69138	3.69379	3.71068	3.72345	3.74093	3.77397	3.80874	3.84522	3.8765	3.92531	3.95525	3.99217	4.02535	4.07354	4.09481	4.09853	4.0734	4.04233	3.95246	3.87609	3.76732	3.65824	3.47155	3.46591	3.46287	3.53228	3.58669	3.63524	3.7099	3.77213	3.82897	3.83902	3.84212	3.80987	3.75908	3.71914	3.70066	3.86634	3.93862	3.96361	3.96226	3.95523	3.95002	3.891	3.86399	3.88299	3.90207	3.89715	3.89006	3.86538	3.88091	3.87334	3.83046	3.77247	3.70979	3.643	3.56797	3.47081	3.43149	3.41115	3.39233	3.40406	3.51952	3.59933	3.65205	3.71578	3.77219	3.8313	3.88709	3.93143	3.92617	3.92714	3.95119	3.96653	3.96572	3.95125	3.94067	3.93108	3.94203	3.95495	3.96036	3.97087	3.98106	3.98417	3.99388	3.9937	3.99071	3.98649	3.97588	3.96166	3.92709	3.89164	3.84229	3.8041	3.78235	3.73542	3.69756	3.65146	3.61039	3.56813	3.53276	3.51772	3.49807	3.4895	3.47836	3.50343	3.52103	3.61138	3.76564	3.89222	4.02214	4.09663	4.13496	4.07352	4.00185	3.89335	3.83468	3.82606	3.81393	3.83121	3.86169	3.87791	3.90565	3.9276	3.9557	3.97939	4.00333	4.01098	4.02741	4.05012	4.0693	4.10228	4.13388	4.19268	4.25318	4.32303	4.38809	4.41175	4.4167	4.41746	4.37452	4.3563	4.09376	3.46898	3.3434	3.30298	3.47368	3.84719	4.11383	3.78128	3.99771	4.04259	4.08568	4.11579	4.15593	4.17387	4.15796	4.13819	4.12514	4.11102	4.08686	4.09654	4.15162	4.19216	4.23894	4.2604	4.25005	4.21478	4.17309	4.10283	4.1079	4.11908	4.12775	4.19881	4.23058	4.23759	4.23602	4.23522	4.21752	4.22219	4.1912	4.16177	4.12943	4.0649	4.02175	3.97461	3.93574	3.89339	3.86827	3.84021	3.78508	3.71762	3.69046	3.65548	3.66031	3.66595	3.67394	3.6759	3.70394	3.73678	3.76056	3.78189	3.81023	3.83902	3.8735	3.90905	3.94904	3.99257	4.02779	4.06307	4.0964	4.12645	4.14317	4.16293	4.17623	4.19335	4.19623	4.20634	4.19555	4.19036	4.13454	3.0653	4.1407	4.09112	4.01408	3.93255	3.83922	3.77453	3.64722	3.59988	3.55572	3.52097	3.48989	3.4611	3.5412	3.56589	3.59839	3.63187	3.66836	3.70047	3.73625	3.76397	3.79593	3.77019	3.797	3.81945	3.84342	3.86487	3.88727	3.91203	3.93364	3.95258	3.96902	3.98018	3.98874	3.99707	4.0074	4.01597	4.02628	4.01071	3.98598	3.95654	3.92195	3.85829	3.81666	3.77939	3.75359	3.72582	3.70838	3.68797	3.67557	3.68853	3.70281	3.71553	3.7062	3.74219	3.74854	3.76482	3.78541	3.80729	3.83432	3.89546	3.91898	3.93044	3.94533	3.96062	3.97612	3.99351	4.00719	4.02748	4.04521	4.06457	4.06198	4.04631	4.05056	4.05726	4.06583	4.06413	4.0468	4.03244	4.01678	4.00527	3.9926	3.98598	3.97716	3.97641	3.97151	3.99473	4.00769	4.01647	4.02384	4.0338	4.04433	4.05391	4.0648	4.06737	4.05961	4.05334	4.04322	4.03864	4.0254	4.01853	3.96892	3.94833	3.92872	3.91162	3.94439	3.95904	3.96625	3.98004	3.98897	4.00272	4.0048	3.99073	3.9777	3.91096	3.87563	3.83119	3.79282	3.75962	3.7259	3.70418	3.68213	3.71101	3.73254	3.76494	3.80549	3.82527	3.86648	3.90085	3.87725	3.76517	3.57879
0	20	5.08845	4.8166	4.57287	4.47592	4.42477	4.38227	4.29369	4.28898	4.31136	4.3314	4.3394	4.35634	4.37738	4.40143	4.42561	4.45266	4.47734	4.5047	4.52908	4.55135	4.58326	4.57942	4.54724	4.52303	4.50058	4.50337	4.52911	4.55958	4.56645	4.56139	4.56096	4.56191	4.56126	4.54542	4.53094	4.51697	4.50493	4.49519	4.47552	4.46605	4.48302	4.49803	4.50348	4.49941	4.48149	4.44333	4.40096	4.36362	4.31182	4.27588	4.26467	4.2656	4.25913	4.26841	4.2556	4.2582	4.24594	4.26395	4.31775	4.37129	4.40016	4.42862	4.40821	4.36522	4.38238	4.39987	4.44855	4.49145	4.52475	4.52527	4.52585	4.5262	4.52627	4.526	4.52545	4.52465	4.52364	4.52247	4.47732	4.40398	4.35357	4.30757	4.46266	4.48165	4.48412	4.4852	4.49345	4.49206	4.48494	4.4763	4.46714	4.45771	4.44793	4.43846	4.42916	4.4204	4.41271	4.40527	4.40022	4.39467	4.39331	4.39006	4.39276	4.3892	4.36519	4.33888	4.2503	4.20957	4.2115	4.25415	4.36189	4.36271	4.33852	4.29793	4.2629	4.23181	4.20276	4.18373	4.17852	4.41919	4.4317	4.41459	4.42217	4.42291	4.3914	4.37109	4.35431	4.36228	4.42376	4.4604	4.45538	4.41465	4.33043	4.25396	4.18374	4.09241	4.06775	4.08846	4.10673	4.14058	4.17334	4.20449	4.24237	4.2817	4.32499	4.36294	4.40192	4.44367	4.47362	4.50415	4.51974	4.51911	4.46815	4.43491	4.39864	4.3602	4.31952	4.28289	4.25121	4.21744	4.17767	4.15817	4.13641	4.15308	4.22168	4.28007	4.34326	4.41389	4.48853	4.5649	4.58862	4.57463	4.5435	4.50465	4.44363	4.40937	4.37464	4.31226	4.27493	4.22256	4.24377	4.19395	4.20648	4.22785	4.21586	4.2441	4.27271	4.2876	4.31444	4.33934	4.36372	4.38732	4.41318	4.43484	4.46014	4.44339	4.47864	4.51592	4.54109	4.52503	4.53145	4.52506	4.45498	4.44957	4.46585	4.51762	4.57042	4.5854	4.59443	4.60443	4.61424	4.62641	4.63932	4.6517	4.66547	4.6791	4.6932	4.70746	4.72146	4.7344	4.7375	4.74556	4.75548	4.76147	4.77088	4.77085	4.78011	4.78284	4.7697	4.7607	4.74749	4.70418	4.56534	4.46992	4.39	4.34297	4.31035	4.30567	4.28803	4.27124	4.26115	4.38216	4.44222	4.5026	4.56209	4.6164	4.66387	4.70024	4.73481	4.68179	4.61547	4.50914	4.4353	4.37538	4.33477	4.37095	4.30481	4.23957	4.17801	4.12324	4.08017	4.04999	4.05792	4.12706	4.19827	4.28405	4.36827	4.38986	4.44475	4.46049	4.44523	4.41036	4.39847	4.42262	4.43456	4.39494	4.32691	4.22006	4.07612	3.93642	3.84348	3.85029	3.85297	3.86981	3.92305	3.98204	4.0407	4.09945	4.15825	4.21541	4.27182	4.30279	4.30608	4.26666	4.21304	4.18833	4.17793	4.19534	4.21163	4.23787	4.26894	4.2704	4.21493	4.14963	4.08411	4.02089	3.94994	3.90008	3.8492	3.84006	3.84993	3.94828	4.01045	4.06683	4.1489	4.2188	4.26925	4.2678	4.19291	4.06054	3.94927	3.87163	3.82891	3.82837	3.79771	3.78095	3.74902	3.76978	3.79146	3.78858	3.79941	3.84273	3.91384	3.97401	4.05048	4.12944	4.20954	4.28969	4.3686	4.44603	4.5053	4.51288	4.5131	4.49382	4.46989	4.45536	4.44236	4.45822	4.46548	4.48044	4.48494	4.422	4.36272	4.31414	4.27522	4.25431	4.29724	4.314	4.21132	4.16465	4.10228	4.04485	4.01202	4.03895	4.06791	4.10402	4.14587	4.20557	4.24499	4.31084	4.36621	4.37954	4.40885	4.43723	4.46633	4.4994	4.5354	4.56394	4.60195	4.55983	4.46134	4.40006	4.34466	4.31297	4.2605	4.20731	4.15688	4.11836	4.10653	4.09999	4.08753	4.0953	4.14169	4.20905	4.28992	4.36418	4.41445	4.45595	4.49743	4.53317	4.55347	4.59005	4.5884	4.61172	4.62733	4.62139	4.59261	4.57073	4.55728	4.55086	4.53649	4.54962	4.56351	4.57754	4.60431	4.60798	4.53577	4.46812	4.4063	4.35416	4.33825	4.40444	4.47292	4.55031	4.63413	4.70163	4.76183	4.7893	4.78746	4.77206	4.80822	4.87591	4.9296	4.99481	5.05285	5.13509	5.01268	4.97914	4.90331	4.88243	4.8964	4.95383	5.01452	5.078	5.30514	5.63718	5.93821	6.02877	6.01425	5.83752	5.78116	5.71528	5.70687	5.70411	5.74909	5.84385	5.91915	5.99126	6.05939	6.13377	6.17532	6.3251	6.47931	6.65197	6.82272	7.00711	7.22102	7.46048	7.6713	7.89683	8.07677	8.26542	8.44557	8.67645	8.92558	9.13704	9.38126	9.67183	10.003	10.4342	11.095	11.9098	12.8458	13.9762	15.3123	16.8907	18.7216	20.9747	23.3339	26.3838	29.5786	33.5657	38.0824	44.0859	51.2036	67.5869	79.4294	97.9575	123.678	158.195	179.615	197.278	199.971	186.044	158.511	127.77	100.026	82.6768	67.1115	54.8182	44.1619	36.118	33.5861	29.7379	24.2007	23.1671	20.8792	18.5628	17.4737	16.3004	14.565	13.2283	12.6659	11.9165	11.2267	10.6001	10.0128	9.49751	9.07011	8.6899	8.36239	8.04903	7.79946	7.57714	7.40201	7.25183	7.10329	6.95117	6.81209	6.62735	6.45633	6.28207	6.1592	6.0207	5.89448	5.78576	5.66373	5.57074	5.50181	5.44506	5.41517	5.40124	5.41642	5.45256	5.52015	5.44851	5.37062	5.30145	5.21875	5.0646	4.95454	4.89945	4.89914	4.90341	4.88847	4.90266	4.86563	4.82654	4.78753	4.74179	4.71054	4.62434	4.59861	4.59112	4.59712	4.58485	4.61659	4.65238	4.69246	4.72739	4.76889	4.79547	4.81661	4.82707	4.82597	4.81824	4.77576	4.71621	4.68312	4.64775	4.59483	4.53296	4.46949	4.43001	4.37176	4.28416	4.19922	4.10114	4.04696	4.00589	3.98652	4.02465	4.07292	4.07805	4.06145	4.02955	3.95019	3.94852	3.94709	3.99248	4.01941	4.02307	4.03111	4.0402	4.04495	4.05615	4.06252	4.07138	4.05856	4.04613	4.0605	4.089	4.05802	4.03101	3.92014	3.85656	3.80403	3.73871	3.67345	3.62397	3.57074	3.50009	3.49522	3.49882	3.60619	3.71582	3.7799	3.83917	3.89825	3.95396	4.00424	4.00866	3.98082	3.98472	3.96801	3.99056	3.98794	3.9771	3.97556	3.97245	3.98847	4.00724	4.03579	4.04965	4.04242	4.032	4.0317	4.04297	4.08207	4.11503	4.11336	4.11169	4.05081	4.01905	3.99142	3.96297	3.90779	3.88555	3.83142	3.82625	3.82648	3.86024	3.88735	3.9007	3.92918	3.97274	4.01528	4.07701	4.11039	4.11133	4.09926	4.07974	4.06399	4.04348	4.01796	3.99787	3.97533	3.95748	3.93645	3.91641	3.87613	3.86812	3.79198	3.68337	3.62406	3.60907	3.62731	3.71927	3.88582	3.85766	3.89347	3.9289	3.95106	3.99111	4.02911	4.0598	4.0711	4.07919	4.07827	4.06581	4.04813	4.01165	4.00486	3.99795	3.9934	3.96777	3.94607	3.91806	3.89365	3.85749	3.82846	3.79987	3.75038	3.71241	3.68481	3.62694	3.60137	3.62965	3.62755	3.60834	3.59259	3.57856	3.56961	3.56247	3.55888	3.57347	3.57762	3.59209	3.5995	3.61014	3.61455	3.62597	3.63394	3.57228	3.55928	3.5672	3.61467	3.68075	3.68687	3.68662	3.69042	3.68826	3.68976	3.68613	3.68498	3.68028	3.67689	3.67258	3.66849	3.66372	3.65331	3.66113	3.66521	3.65849	3.69692	3.73542	3.78355	3.84382	3.98294	4.00772	4.03595	4.02861	3.9642	3.91923	3.88318	3.84743	3.82264	3.81716	3.82674	3.95487	3.98309	4.06714	4.08944	4.10068	4.12077	4.12235	4.12832	4.14682	4.147	4.10819	4.11299	4.11237	4.10792	4.10812	4.12209	4.14987	4.15641	4.16344	4.1701	4.16838	4.16969	4.1518	4.13659	4.18691	4.21174	4.26362	4.26175	4.2555	4.25609	4.25476	4.24203	4.2147	4.21368	4.2056	4.19096	4.16641	4.15694	4.17091	4.20529	4.20384	4.19528	4.17251	4.14567	4.15567	4.17343	4.19611	4.23739	4.24221	4.27829	4.30741	4.30787	4.29513	4.30847	4.33911	4.34682	4.36858	4.41578	4.47781	4.46008	4.43827	4.41294	4.34261	4.29036	4.23306	4.19607	4.13543	4.07007	4.00507	3.95003	3.89357	3.89035	3.87078	3.85777	3.86358	3.86785	3.8769	3.88793	3.89887	3.90171	3.90638	3.9118	3.91647	3.92335	3.93116	3.94712	3.95624	3.96467	3.97448	3.98261	3.99253	4.00019	4.00989	4.01693	4.02602	4.03226	4.03669	4.04	4.04133	3.98833	3.98569	4.01791	4.03238	4.0267	4.01917	4.0012	3.99183	3.9844	3.97153	3.96092	3.94396	3.93053	3.90923	3.89282	3.86854	3.85028	3.82921	3.81742	3.81839	4.03676	4.31817	4.32139	4.32508	4.34407	4.35444	4.3674	4.36988	4.33496	4.30127	4.25645	4.19511	4.14295	4.09542	4.05554	4.0269	4.00728	3.99153	3.92724	3.88972	3.9042	3.92247	3.9591	3.98757	4.00824	4.05588	4.09825	4.13156	4.17538	4.2144	4.22786	4.23626	4.25473	4.25916	4.22979	4.18969	4.14611	4.11875	4.11861	4.12101	4.09822	4.06548	4.05306	4.02349	4.01882	4.03389	4.06143	3.97403	3.76166	3.62603	3.56928	3.58903	3.67927	3.83702	3.9988	4.14133	4.21009	4.25355	4.27917	4.3052	4.27419	4.23063	4.18542	4.13555	4.05223	3.94932	3.8607	3.80307	3.77238	3.82475	3.88984	3.96974	4.05556	4.13752	4.21056	4.19352	4.17142	4.14292	4.1045	4.09477	4.08175	4.06729	4.03532	4.01463	3.98913	3.98154	3.92298	3.90975	3.89904	3.95316	3.98973	4.03239	4.07586	4.12009	4.16222	4.2015	4.23215	4.27845	4.26865	4.26481	4.21258	4.15675	4.12031	4.07236	4.02657	3.98334	3.94402	3.908	3.87597	3.84879	3.82491	3.81206	3.84802	3.86942	3.87371	3.91856	3.92368	3.94133	3.95043	3.99867	4.02638	4.07762	4.15456	4.25625	4.10985	3.95271
20	-20	3.83817	4.07271	4.2568	4.39812	4.49982	4.56421	4.59402	4.60924	4.5459	4.48209	4.40631	4.31298	4.21565	4.12575	4.02782	3.94286	3.83947	3.70565	3.69032	3.68851	3.69868	3.71888	3.74628	3.77952	3.81387	3.84867	3.88558	3.92496	3.96197	4.00296	4.03843	4.07853	4.11184	4.13176	4.15459	4.16154	4.16344	4.16205	4.16723	4.18309	4.19607	4.204	4.21749	4.22252	4.23874	4.25419	4.26861	4.28471	4.29884	4.3138	4.32685	4.33926	4.35054	4.36139	4.36326	4.36426	4.37132	4.3702	4.36766	4.36307	4.36769	4.32642	4.28051	4.2335	4.18773	4.19131	4.18419	4.18643	4.14966	4.11445	4.07535	4.03834	4.00789	3.96737	3.95743	3.93419	3.91433	3.8905	3.87331	3.86	3.85317	3.84465	3.89672	3.91411	3.92745	3.949	3.96889	3.99368	4.02323	4.04967	4.08024	4.10475	4.13162	4.15554	4.17955	4.20698	4.20485	4.19133	4.16049	4.15925	4.14371	4.15339	4.19442	4.20896	4.19327	4.13008	4.08858	4.06789	4.06315	4.10272	4.17562	4.15001	4.12614	4.08336	4.04823	3.99868	3.96732	3.92665	3.92764	3.86763	3.90901	3.96043	4.01046	4.01124	4.00857	4.00427	3.994	3.99968	4.00121	4.05524	4.07667	4.11099	4.14856	4.19859	4.24415	4.30358	4.34389	4.37579	4.38475	4.38329	4.37775	4.36728	4.35057	4.3348	4.31801	4.30412	4.2858	4.27571	4.25739	4.20902	4.13981	4.07113	4.0032	3.93533	3.86529	3.80833	3.77359	3.75428	3.79729	3.86283	3.94977	4.03698	4.1388	4.24859	4.35039	4.39066	4.42795	4.46821	4.45577	4.45243	4.45385	4.44043	4.42434	4.40792	4.39379	4.34532	4.28569	4.21807	4.1811	4.15905	4.11744	4.08958	4.06266	4.0282	3.99675	3.96867	3.93913	3.91396	3.88712	3.87162	3.93656	3.98905	4.06349	4.13834	4.22194	4.29801	4.35541	4.38633	4.41695	4.44413	4.46998	4.49671	4.49252	4.50495	4.487	4.39116	4.28818	4.1827	4.08817	3.98596	3.87555	3.78179	3.78572	3.81893	3.85642	3.90258	3.96696	4.00654	4.05088	4.08815	4.13605	4.17951	4.22482	4.26828	4.30954	4.34882	4.38026	4.3694	4.35305	4.34899	4.33746	4.33876	4.32655	4.32423	4.32044	4.31669	4.31271	4.30734	4.30192	4.29247	4.29065	4.27163	4.25167	4.22848	4.20418	4.1803	4.15586	4.15824	4.1487	4.12987	4.10179	4.05824	3.95718	4.01094	4.08372	4.1288	4.16268	4.19205	4.20619	4.21968	4.17197	4.17907	4.2017	4.23775	4.37223	4.37088	4.34436	4.3219	4.29692	4.24795	4.24296	4.23964	4.2418	4.2326	4.27952	4.27019	4.24032	4.20633	4.18889	4.16394	4.10944	4.01759	3.96175	3.90228	3.8357	3.75921	3.69547	3.6164	3.48413	3.41123	3.46988	3.57777	3.70606	3.81443	3.91204	4.00075	4.08279	4.15748	4.22157	4.25085	4.22313	4.1573	4.00628	3.8209	3.71745	3.76505	3.82776	3.84529	3.8933	3.93696	3.98281	4.01922	4.05623	4.07794	4.09569	4.11202	4.12963	4.14697	4.16415	4.17813	4.17321	4.16762	4.15224	4.13674	4.11689	4.09529	4.07951	4.02663	3.96241	3.89875	3.82374	3.76435	3.68617	3.66566	3.68427	3.71804	3.75355	3.79796	3.84913	3.90667	3.9649	4.08587	4.1166	4.11825	4.06498	4.02076	3.97694	3.95591	3.97606	4.02308	4.06795	4.07131	4.06154	4.06505	4.06781	4.07621	4.08169	4.09134	4.11595	4.13844	4.15766	4.17361	4.19023	4.20445	4.17192	4.11359	4.1002	4.11115	4.12374	4.13325	4.15849	4.18054	4.20062	4.2025	4.14176	4.08056	4.02383	3.95996	3.88645	3.83026	3.72046	3.6651	3.63625	3.61671	3.59345	3.63599	3.66912	3.6971	3.72483	3.75708	3.79085	3.8274	3.86415	3.89961	3.93341	3.96627	3.99925	3.99633	4.01778	4.03728	4.05977	4.08795	4.10888	4.15959	4.1831	4.20025	4.17968	4.15998	4.14133	4.14465	4.14928	4.22069	4.21425	4.20829	4.20156	4.19606	4.19024	4.1861	4.18341	4.18269	4.18342	4.18823	4.17175	4.17022	4.16932	4.20331	4.22246	4.26205	4.30044	4.32681	4.36108	4.39358	4.43075	4.47347	4.50249	4.55636	4.61006	4.67025	4.73138	4.79758	4.86581	4.93757	5.01163	5.08838	5.12824	5.14365	5.18164	5.24088	5.32328	5.39016	5.45291	5.49783	5.54873	5.63076	5.73242	5.78806	5.82549	5.86738	5.91094	5.93971	6.03735	6.10778	6.20585	6.31342	6.44116	6.5581	6.64759	6.85746	7.0589	7.29058	7.56686	7.88452	8.24116	8.62373	9.05912	9.51995	10.0187	10.4942	11.0186	11.6046	12.3528	13.1993	14.1903	15.329	16.6516	18.2726	20.0448	22.3245	23.8818	25.8468	28.9128	32.8853	39.9225	48.2153	54.7954	72.1742	87.0176	100.767	137.324	162.938	189.689	203.339	207.76	184.404	151.278	122.354	100.828	84.1154	66.5527	51.1694	48.4873	39.2641	33.5207	29.4501	26.2942	23.7183	21.5049	19.5699	17.73	15.9964	14.5416	13.3564	12.3539	11.4647	10.7767	10.2124	9.73442	9.37906	9.06092	8.77793	8.5073	8.2541	8.01759	7.76364	7.50772	7.27053	7.00971	6.85756	6.72585	6.60951	6.50149	6.40041	6.27622	6.14158	6.03574	5.93109	5.85786	5.78706	5.68215	5.57246	5.4684	5.35817	5.26253	5.17542	5.09069	5.01901	4.96856	4.92576	4.87873	4.80972	4.74613	4.67748	4.62206	4.5728	4.52659	4.48612	4.4489	4.41714	4.38873	4.36553	4.34572	4.33087	4.31949	4.31018	4.30966	4.30872	4.28549	4.2428	4.21266	4.18442	4.18869	4.17906	4.18624	4.23711	4.28763	4.33935	4.39846	4.45559	4.49672	4.50476	4.48734	4.48014	4.4509	4.33598	4.18231	4.01652	3.86252	3.71402	3.59104	3.51112	3.58626	3.58825	3.60341	3.61932	3.63776	3.65731	3.67661	3.69727	3.71387	3.71152	3.71409	3.71695	3.71926	3.71787	3.71359	3.67489	3.68251	3.70043	3.7161	3.72256	3.73273	3.76906	3.81496	3.8495	3.93109	3.92855	3.92253	3.91313	3.90056	3.88517	3.86687	3.84636	3.82375	3.73394	3.69822	3.59822	3.58324	3.57236	3.56584	3.56145	3.56378	3.59222	3.6196	3.64262	3.6648	3.68562	3.7055	3.72435	3.74213	3.75885	3.77502	3.7553	3.69359	3.63221	3.7298	3.83453	3.84276	3.84967	3.64749	3.73168	3.67846	3.60986	3.71658	3.72937	3.87014	3.86652	3.9023	3.88721	3.86399	3.83174	3.81186	3.80115	3.7807	3.7553	3.70807	3.66999	3.65142	3.64457	3.66923	3.68673	3.70098	3.71338	3.72712	3.74844	3.78512	3.77657	3.76775	3.76255	3.75657	3.75486	3.75148	3.76558	3.76569	3.76924	3.77102	3.76943	3.76699	3.75612	3.75451	3.74258	3.73531	3.69874	3.71059	3.71716	3.72609	3.71778	3.70632	3.69918	3.69415	3.68317	3.69003	3.67813	3.69937	3.72261	3.755	3.79681	3.8233	3.85092	3.86117	3.8247	3.79736	3.75988	3.67235	3.62173	3.58103	3.53632	3.49443	3.44351	3.40382	3.38076	3.36574	3.35099	3.37104	3.38019	3.39426	3.41232	3.43827	3.46069	3.48202	3.5067	3.53094	3.55527	3.57895	3.60323	3.62504	3.64802	3.66697	3.68771	3.70313	3.71499	3.70167	3.68926	3.67212	3.6571	3.63664	3.59864	3.58694	3.58199	3.5668	3.56059	3.55625	3.56502	3.56681	3.57211	3.57744	3.58634	3.59479	3.60973	3.62296	3.64229	3.66437	3.69092	3.71751	3.74393	3.77174	3.7834	3.79449	3.80701	3.82087	3.83556	3.85091	3.86675	3.88291	3.89926	3.91564	3.93194	3.94802	3.96378	3.97909	3.99385	4.00795	4.02132	4.03374	4.04509	4.02982	4.00948	3.9954	3.97461	3.95956	3.95711	3.93813	3.90041	3.86201	3.85163	3.8495	3.84591	3.87851	3.90003	3.91841	3.92195	3.9278	3.9314	3.93846	3.95301	3.95488	3.95329	3.95303	3.95174	3.94898	3.94853	3.93041	3.915	3.90322	3.89649	3.88524	3.87028	3.85899	3.86007	3.86485	3.87794	3.88955	3.90522	3.94024	3.96383	3.9851	4.01212	4.02663	4.0389	4.0391	4.03839	4.01466	3.96203	3.91444	3.87046	3.81107	3.74966	3.68752	3.62416	3.57377	3.6055	3.70979	3.68622	3.6591	3.64116	3.59969	3.59521	3.59036	3.59324	3.59779	3.63079	3.65859	3.68431	3.71359	3.7445	3.7911	3.82167	3.85578	3.88635	3.89574	3.90956	3.91476	3.95332	3.99313	4.03816	4.07492	4.09521	4.0475	4.0486	4.01583	3.99077	3.97885	3.97668	3.99106	3.99228	4.00119	4.0135	4.02288	3.98835	3.94896	3.91413	3.88027	3.85275	3.81227	3.80605	3.788	3.77873	3.77403	3.74865	3.73787	3.7328	3.71861	3.71509	3.71513	3.71865	3.72865	3.73061	3.77916	3.83845	3.91705	3.9853	4.05727	4.12718	4.19556	4.10513	3.92232	3.76576	3.70755	3.69395	3.71091	3.70084	3.86891	4.0155	4.05205	4.07831	3.98848	3.92123	3.83155	3.75376	3.69422	3.64679	3.59886	3.54287	3.48574	3.43204	3.41569	3.40857	3.43736	3.50719	3.61635	3.77202	3.90235	3.9411	3.83859	3.76837	3.72584	3.71847	3.93005	3.91617	3.88623	3.84227	3.78421	3.72927	3.62431	3.49284	3.55753	3.66696	3.69376	3.73833	3.7694	3.77962	3.75496	3.67677	3.59881	3.55576	3.58474	3.66317	3.75718	3.80115	3.83982	3.88203	3.929	3.98306	4.03998	4.0938	4.15394	4.20084	4.19511	4.17963	4.1431	4.09651	4.04333	3.9542	3.8816	3.8248	3.78386	3.76369	3.78644	3.83704	3.90175	3.97937	4.01661	4.01716	4.05193	4.05873	4.07404	4.05672	4.03485	4.01201	3.98702	3.96338	3.93965	3.91838	3.89871	3.8815	3.84636	3.81143	3.7786	3.74822	3.71968	3.69295	3.66771	3.64252	3.61922	3.29434	3.4392	3.58936	3.58504	3.60161	3.60979	3.64713	3.67047	3.72998	3.77132	3.90011
20	0	4.01322	4.31841	4.34382	4.36543	4.38241	4.39452	4.4025	4.40714	4.40909	4.41448	4.40497	4.38726	4.37167	4.35616	4.34498	4.3323	4.32488	4.31965	4.32054	4.31456	4.31499	4.30672	4.30382	4.29563	4.29361	4.2891	4.28673	4.28686	4.26535	4.27769	4.28832	4.28855	4.28552	4.28654	4.28535	4.28638	4.29082	4.29503	4.30025	4.29814	4.31725	4.33617	4.35079	4.33396	4.3177	4.30503	4.2839	4.27149	4.26115	4.25311	4.25091	4.24678	4.24836	4.24815	4.2533	4.25682	4.2652	4.27201	4.28307	4.29272	4.30832	4.31724	4.33094	4.33841	4.3411	4.3327	4.2962	4.25932	4.20382	4.18496	4.17115	4.159	4.16729	4.1719	4.17938	4.19204	4.20165	4.21478	4.22737	4.24236	4.25528	4.264	4.2472	4.19146	4.15365	4.0913	4.0787	4.05945	4.04826	4.04045	4.14506	4.18561	4.22465	4.33278	4.33825	4.33883	4.33522	4.32949	4.24416	4.21224	4.16083	4.11747	4.06917	4.03545	3.99844	3.97081	3.94918	3.9297	3.94548	3.96271	4.00296	4.03122	4.0694	4.10358	4.11905	4.11308	4.10923	4.10547	4.11757	4.13037	4.15254	4.22546	4.25982	4.29951	4.33702	4.3743	4.4111	4.44685	4.45428	4.45452	4.45427	4.44833	4.42287	4.40207	4.38627	4.33904	4.30661	4.21742	4.20094	4.15594	4.10652	4.09074	4.16668	4.19418	4.23574	4.27636	4.29274	4.29943	4.3099	4.30684	4.29098	4.2643	4.2352	4.17441	4.11728	4.0749	4.03102	3.98986	3.95315	3.91661	3.89135	3.85547	3.84942	3.8361	3.83296	3.83672	3.9288	4.02812	4.14111	4.25207	4.35	4.44583	4.46138	4.43401	4.40461	4.38077	4.34352	4.35245	4.38814	4.42303	4.46353	4.47286	4.44367	4.38911	4.3271	4.26374	4.21182	4.15488	4.15249	4.11389	4.09552	4.07655	4.06674	4.05225	4.04431	4.03371	4.03087	4.02583	4.02737	4.03012	4.03598	4.04134	4.066	4.0325	4.09105	4.15116	4.21487	4.28727	4.35937	4.43281	4.51433	4.58931	4.70114	4.75644	4.79844	4.80388	4.798	4.74356	4.71128	4.65372	4.63256	4.61274	4.59272	4.57582	4.55937	4.56578	4.55708	4.53082	4.51454	4.4918	4.49886	4.49746	4.49503	4.51181	4.51613	4.52423	4.53232	4.54368	4.55628	4.57203	4.58918	4.58503	4.57744	4.3647	4.13457	4.04978	4.01581	3.99944	4.27971	4.3191	4.25167	4.21605	4.22208	4.38051	4.35339	4.31195	4.26746	4.21865	4.16919	4.11744	4.06945	4.02231	3.98128	3.94665	3.92291	3.90739	3.91153	3.87194	3.9284	3.98965	4.05598	4.12442	4.19775	4.27028	4.32109	4.36859	4.42383	4.41707	4.36479	4.28563	4.19592	4.05898	4.0192	3.98432	3.98107	3.97574	3.93086	3.94618	3.95304	3.92841	3.92004	3.9432	3.94062	3.93831	3.93444	3.93139	3.92811	3.92501	3.92187	3.91865	3.91555	3.91211	3.90898	3.90526	3.90199	3.89792	3.89428	3.88975	3.88554	3.8805	3.87555	3.86983	3.86323	3.85679	3.84805	3.83709	3.82885	3.8216	3.80891	3.81472	3.80876	3.80494	3.80131	3.79993	3.79954	3.80123	3.80472	3.80999	3.81812	3.82721	3.83977	3.85467	3.87177	3.89092	3.91196	3.91242	3.87372	3.82699	3.83588	3.88844	3.93184	3.97909	4.02547	4.07404	4.12295	4.17158	4.20654	4.22403	4.23108	4.23512	4.23724	4.24169	4.24473	4.24906	4.251	4.24679	4.2321	4.21102	4.18804	4.16497	4.14205	4.12031	4.09852	4.07669	4.05767	4.03656	4.02102	4.02399	4.0176	4.01051	4.00648	3.99789	3.99465	3.98825	3.98548	3.98115	3.97841	3.9835	3.96744	3.95653	3.94004	3.92854	3.91163	3.89901	3.88181	3.86739	3.85078	3.83494	3.82082	3.80496	3.78997	3.77966	3.75326	3.78317	3.8174	3.86133	4.00589	4.08745	4.18127	4.25212	4.36208	4.40913	4.4501	4.49906	4.46072	4.45614	4.44401	4.43865	4.42785	4.42484	4.41526	4.41536	4.41001	4.41054	4.40823	4.42642	4.39346	4.31729	4.24615	4.16263	4.10895	4.07179	4.06357	4.09213	4.20407	4.16213	4.12608	4.09055	4.07472	4.05913	4.04662	4.05132	4.09528	4.25432	4.3772	4.50897	4.64622	4.72647	4.80298	4.88673	4.97004	5.05144	5.14128	5.16332	5.18274	5.20424	5.22993	5.25393	5.27293	5.30935	5.34418	5.38697	5.43505	5.51183	5.63611	5.75329	5.87883	6.01362	6.15058	6.29706	6.4482	6.59602	6.75194	6.90514	7.05797	7.1881	7.33647	7.4775	7.62755	7.787	7.96445	8.15473	8.42052	8.72358	9.11557	9.5699	10.099	10.6615	11.3334	12.0163	13.1225	14.1984	15.2564	16.6158	18.0347	19.8709	21.754	24.213	26.7768	29.7995	33.2914	37.757	45.8885	55.9242	66.6525	81.9175	99.6168	124.007	153.705	195.067	215.333	229.602	213.211	183.694	160.504	124.443	97.5925	78.6371	64.8385	52.8076	45.3569	37.2102	33.759	27.9962	22.4283	22.7474	21.1466	19.4011	17.9118	16.3141	14.9024	13.7072	12.735	11.8811	11.1196	10.4337	9.83506	9.33742	8.91323	8.54992	8.22509	7.95029	7.69596	7.44777	7.17795	6.98718	6.82698	6.68128	6.54279	6.40348	6.26233	6.11288	5.98575	5.8797	5.80698	5.77328	5.77588	5.79391	5.80309	5.79155	5.76247	5.71856	5.6601	5.58763	5.51936	5.42211	5.34952	5.26861	5.19516	5.12201	5.04494	4.96445	4.87953	4.79624	4.7282	4.67689	4.64934	4.60197	4.54365	4.47443	4.39223	4.372	4.3139	4.29558	4.28599	4.27714	4.27134	4.2749	4.28189	4.1878	4.18832	4.1849	4.17902	4.16916	4.15546	4.13819	4.11481	4.08986	4.05172	4.02847	4.03521	4.04801	4.0679	4.09089	4.12071	4.11073	4.07273	4.07961	4.07335	4.055	4.04396	4.03865	4.03463	4.00188	3.97937	3.95037	3.88281	3.80388	3.7901	3.77232	3.83067	3.82624	3.82721	3.83044	3.86184	3.86881	3.8783	3.91651	3.94762	3.91217	3.8445	3.77739	3.66076	3.63469	3.61139	3.57672	3.60097	3.62603	3.65129	3.67647	3.65511	3.61318	3.56694	3.53514	3.55297	3.55768	3.62915	3.69099	3.75755	3.82174	3.86699	3.86267	3.85506	3.84777	3.83402	3.82456	3.79525	3.7866	3.76876	3.73703	3.72945	3.72496	3.72225	3.72079	3.72362	3.72557	3.73343	3.73891	3.75139	3.75977	3.77043	3.72785	3.72406	3.74393	3.76099	3.78075	3.82656	3.83065	3.84063	3.85771	3.85082	3.84213	3.83336	3.82651	3.79499	3.80659	3.80061	3.79975	3.79991	3.80393	3.80807	3.8156	3.82177	3.83094	3.84065	3.85407	3.86658	3.88208	3.89535	3.91001	3.88755	3.89453	3.90306	3.90057	3.91178	3.92881	3.94449	3.94549	3.93301	3.84294	3.83856	3.8295	3.83082	3.83033	3.83687	3.84209	3.91087	3.94246	3.95762	3.96376	3.96283	3.94225	3.90394	3.86179	3.84512	3.83154	3.8261	3.8519	3.86628	3.8132	3.7954	3.77518	3.75835	3.74532	3.73113	3.75252	3.71887	3.68717	3.66009	3.61887	3.59434	3.5914	3.57875	3.56252	3.58564	3.5887	3.58775	3.5956	3.60813	3.61805	3.62751	3.62698	3.63866	3.64966	3.6642	3.67732	3.69446	3.71228	3.73027	3.74906	3.76782	3.78754	3.80265	3.81201	3.82614	3.83593	3.85591	3.86669	3.87925	3.88836	3.89891	3.90599	3.91269	3.91683	3.92258	3.92331	3.92437	3.92127	3.92034	3.90521	3.89079	3.87008	3.85284	3.84113	3.79577	3.75726	3.71194	3.6716	3.62852	3.58851	3.54989	3.51262	3.48078	3.44413	3.4207	3.40729	3.40124	3.4844	3.56213	3.63576	3.63431	3.67901	3.74806	3.81492	3.87813	3.90605	3.92715	3.94973	3.97694	3.99916	4.02052	3.97227	3.86296	3.74211	3.61638	3.48107	3.35577	3.28376	3.49425	3.62861	3.75938	3.8807	3.99315	4.10899	4.16737	4.18318	4.19001	4.20497	4.22263	4.24051	4.23721	4.22394	4.1798	4.12973	4.07787	4.02648	3.97102	3.88105	3.80992	3.73448	3.68084	3.63877	3.59533	3.67354	3.78432	3.8811	3.93125	3.93003	3.9458	3.95834	3.97831	3.99457	4.01329	4.03324	4.05233	4.0738	4.09237	4.11374	4.12854	4.09064	4.05707	4.01652	3.981	3.94923	3.91561	3.83557	3.83914	3.82906	3.84273	3.85575	3.86671	3.8876	3.91044	3.92565	3.95595	3.97711	3.99954	4.02005	4.03856	4.05665	4.06918	4.08349	4.08558	4.08218	4.05478	4.04949	4.02342	3.98603	3.94888	3.9061	3.88717	3.8696	3.85747	3.89076	3.89528	3.91643	3.93646	3.94113	3.95123	3.94747	3.9475	3.93792	3.93827	3.93343	3.94235	3.92782	3.91637	3.90479	3.89303	3.88092	3.86838	3.85535	3.84151	3.82494	3.80629	3.77441	3.75949	3.73947	3.72166	3.68228	3.68043	3.68365	3.67897	3.62395	3.61648	3.6118	3.63442	3.65111	3.66931	3.69367	3.73512	3.76318	3.79229	3.83977	3.85923	3.87324	3.88598	3.88527	3.88576	3.88173	3.87396	3.8509	3.84344	3.84319	3.81921	3.79591	3.76484	3.73927	3.71593	3.69346	3.67367	3.65316	3.63664	3.61821	3.60441	3.58903	3.57805	3.56593	3.55668	3.55559	3.55156	3.54622	3.54092	3.53792	3.53622	3.53772	3.54294	3.54973	3.56413	3.56497	3.58476	3.60697	3.63259	3.62851	3.65602	3.68076	3.71157	3.74105	3.77488	3.80897	3.84509	3.88323	3.92041	3.96167	4.00949	4.04951	4.08676	4.12003	4.15547	4.16649	4.14644	4.14001	4.10511	4.10123	4.06397	4.05282	4.03967	4.02745	3.9802	3.94595	3.9031	3.87784	3.84703	3.81932	3.78423	3.77207	3.77417	3.77337	3.83438	3.86458	3.88838	3.92539	3.96588	4.00894	4.05362	4.0989	4.07884	3.98637	3.8907	3.8051	3.90612	3.90332	3.89729	3.90002	3.90227	3.92066	3.93514	3.96244	4.00438	4.05266	4.07307	4.06398	3.99374	3.85591
20	20	4.26046	4.34859	4.42251	4.41489	4.40993	4.40112	4.38714	4.34873	4.2962	4.25405	4.21827	4.18489	4.15161	4.11736	4.09209	4.03167	3.98701	3.93258	3.8905	3.84417	3.80418	3.7643	3.73651	3.70637	3.68397	3.66105	3.65559	3.69958	3.74413	3.85226	3.94302	4.04381	4.14064	4.24584	4.3104	4.3471	4.34291	4.32655	4.30954	4.28271	4.22566	4.16936	4.10957	4.02299	3.95037	3.89223	3.84445	3.83385	3.89527	3.9565	4.02928	4.09845	4.18243	4.26276	4.33296	4.40133	4.44349	4.37498	4.33261	4.31393	4.29404	4.23251	4.14937	4.06417	3.97744	3.8931	3.81947	3.74089	3.68037	3.61404	3.59737	3.55562	3.56256	3.57235	3.59768	3.61711	3.65734	3.6994	3.75137	3.8062	3.86099	3.93358	3.99757	4.06702	4.11373	4.14327	4.1798	4.15528	4.11492	4.08711	3.9995	4.01611	4.02235	3.99962	3.99486	4.03948	4.15705	4.23111	4.28438	4.34488	4.43576	4.41572	4.37815	4.32707	4.287	4.25127	4.21906	4.18173	4.15154	4.14682	4.12397	4.08152	4.04571	3.97783	3.96444	3.95278	3.94365	3.99879	4.03528	4.08942	4.10098	4.13397	4.13276	4.13151	4.12709	4.11626	4.10838	4.07598	3.99685	3.9619	3.93182	3.89918	3.87653	3.85055	3.83303	3.8221	3.82634	3.81306	3.80971	3.80315	3.8009	3.79978	3.80246	3.80692	3.81294	3.8067	3.82003	3.84281	3.86903	3.89954	3.90058	3.81987	3.7858	3.75576	3.74061	3.78457	3.83452	3.88005	3.92977	3.98148	4.03205	4.09361	4.1391	4.18747	4.25657	4.3205	4.32223	4.31041	4.2845	4.25511	4.24986	4.16191	4.10568	4.07068	4.06182	4.06392	4.12884	4.19456	4.15407	4.11564	4.07	4.03533	3.99395	3.96149	3.92995	3.91191	3.89047	3.87972	3.86617	3.88227	3.89084	3.90333	3.91336	3.92112	3.94797	3.98201	4.01309	4.0522	4.0739	4.04828	4.01536	3.96149	4.01171	4.07606	4.16922	4.2721	4.30642	4.16978	4.07401	3.99077	3.89164	3.80754	3.73524	3.96259	3.99519	4.03611	4.12804	4.20677	4.30021	4.37423	4.43754	4.4853	4.50021	4.50097	4.43635	4.35393	4.18784	4.00049	3.83395	3.69809	3.79787	4.02581	4.1876	4.33613	4.38648	4.38822	4.40906	4.44469	4.41566	4.38704	4.34896	4.35392	4.38782	4.42371	4.46368	4.51053	4.54773	4.6345	4.63032	4.62391	4.59765	4.57008	4.53334	4.49777	4.45488	4.38318	4.30916	4.23541	4.16353	4.0748	4.06102	4.03427	4.01045	3.99434	3.97857	3.97187	3.97284	3.96996	3.96902	3.97177	3.97736	3.98616	3.99429	3.98487	4.00598	4.03155	4.05667	4.08394	4.11082	4.13893	4.15925	4.17332	4.17538	4.1681	4.16239	4.1543	4.14794	4.13945	4.13228	4.12357	4.11558	4.10629	4.09611	4.08613	4.07641	4.0597	4.04185	4.03957	4.02438	4.00536	3.98894	3.96988	3.95314	3.93538	3.91609	3.89284	3.86978	3.84865	3.82963	3.82222	3.80862	3.81286	3.81195	3.8077	3.80781	3.81016	3.88331	3.8983	3.92341	3.9451	3.96793	3.99313	4.01603	4.03607	4.04721	4.06046	4.0455	3.97444	3.88416	3.80235	3.70225	3.61424	3.50876	3.40265	3.39213	3.38539	3.50068	3.60863	3.69462	3.75161	3.75964	3.77495	3.77188	3.80575	3.81937	3.85465	3.82684	3.79571	3.77328	3.75391	3.74415	3.75685	3.78431	3.82685	3.85557	3.91671	3.96395	4.00655	4.05496	4.10701	4.15967	4.21642	4.20465	4.16825	4.10448	4.04615	4.01804	3.9172	3.86455	3.82832	3.80427	3.83039	3.85024	3.90011	3.9271	3.95694	3.98143	4.00653	4.02501	4.04607	4.03393	4.03649	4.04694	4.04116	4.05834	4.06936	4.08756	4.07644	4.04739	4.01461	3.98302	3.95877	3.93284	3.90657	3.86668	3.87223	3.89975	3.92603	3.9462	3.97194	3.98652	4.00259	3.86545	3.77834	3.7117	3.67165	3.87421	4.04801	4.38411	4.5088	4.56557	4.56856	4.49471	4.4103	4.35043	4.26088	4.19445	4.15106	4.11534	4.09345	4.15961	4.23098	4.24617	4.30761	4.37325	4.44099	4.50686	4.53414	4.56278	4.60729	4.64108	4.67534	4.70263	4.72512	4.7451	4.73837	4.73495	4.72824	4.76016	4.84998	4.92413	4.97558	4.93546	4.90182	4.87153	4.84833	4.82936	4.8172	4.8158	4.82424	4.8471	4.94012	5.05861	5.15614	5.29415	5.43075	5.56663	5.72451	5.89084	6.07216	6.25533	6.45123	6.45543	6.60767	6.75815	6.92751	7.12629	7.33805	7.51204	7.68951	7.91322	8.19089	8.51064	8.89297	9.23655	9.61232	9.84642	10.3487	10.9438	11.4936	12.3087	12.9958	13.8828	14.7806	15.9694	17.2403	18.9764	20.988	23.1506	25.8644	29.085	33.3761	39.6039	46.7642	56.1529	70.3155	81.7459	101.313	123.48	158.193	190.311	211.346	213.391	206.795	178.457	144.884	115.553	96.662	78.4587	64.1929	57.06	46.9347	39.6581	33.754	30.5537	24.1179	22.0807	19.0802	18.6082	16.8406	15.7312	14.4983	13.8247	12.8411	11.8437	11.0524	10.4111	9.83185	9.25994	8.73386	8.31645	7.98386	7.69726	7.51016	7.31213	7.10853	6.90209	6.75052	6.59882	6.46621	6.32176	6.16144	5.98906	5.81665	5.63305	5.42738	5.23113	5.09753	4.99873	4.96894	5.08324	5.18444	5.31824	5.37051	5.30485	5.20227	5.10818	4.92195	4.8603	4.81272	4.78373	4.76598	4.80305	4.8079	4.80674	4.79867	4.78151	4.77212	4.76326	4.76314	4.75422	4.75088	4.68913	4.61448	4.54022	4.47431	4.41326	4.35755	4.29079	4.25744	4.21402	4.2007	4.20779	4.23441	4.2592	4.27862	4.31284	4.34666	4.371	4.35788	4.34424	4.23431	4.16788	4.11608	4.08089	4.01993	3.92581	3.82813	3.74129	3.66315	3.59579	3.54745	3.54116	3.55246	3.57514	3.6022	3.70053	3.88601	4.06653	4.15365	4.14514	4.13867	4.1303	4.11475	4.08914	3.84183	3.72841	3.65117	3.63144	3.63851	3.67322	3.70831	3.76034	3.8218	3.84044	3.84629	3.86761	3.88674	3.91473	3.86413	3.80372	3.76739	3.7564	3.73694	3.69207	3.66087	3.63522	3.62709	3.62012	3.63926	3.66423	3.71339	3.78396	3.79472	3.75244	3.5519	3.32931	3.08483	2.97194	2.96275	3.04089	3.15512	3.38473	3.51517	3.62433	3.66183	3.44229	3.53467	3.54519	3.54976	3.58969	3.62536	3.67945	3.72489	3.77825	3.78534	3.81637	3.83848	3.86393	3.8913	3.93259	3.9048	3.86706	3.84366	3.81602	3.79039	3.7622	3.7016	3.60588	3.51932	3.50627	3.49372	3.55324	3.59001	3.6322	3.67496	3.71975	3.76185	3.80374	3.83321	3.81323	3.8007	3.80752	3.80486	3.80203	3.80857	3.82672	3.81245	3.77046	3.71769	3.65837	3.65457	3.69538	3.72357	3.71565	3.71369	3.71016	3.65136	3.55829	3.45903	3.41569	3.3918	3.38999	3.38373	3.43306	3.45303	3.46602	3.48433	3.49569	3.51437	3.52583	3.54439	3.55432	3.57069	3.57903	3.59259	3.58773	3.58084	3.58193	3.5823	3.58714	3.61018	3.6186	3.64234	3.6651	3.68206	3.69698	3.71723	3.73782	3.75579	3.79217	3.80504	3.81904	3.82941	3.84093	3.8475	3.83337	3.82303	3.83527	3.84415	3.83608	3.8433	3.84909	3.8595	3.8646	3.77434	3.43002	3.32333	3.24372	3.21428	3.23618	3.316	3.43802	3.56129	3.57809	3.55203	3.37873	3.31481	3.2774	3.18742	3.26516	3.34713	3.43576	3.52766	3.61826	3.70923	3.79248	3.87345	3.94115	3.90468	3.88866	3.88216	3.87451	3.87085	3.86562	3.86318	3.86404	3.86343	3.85022	3.8675	3.84582	3.82715	3.80739	3.79104	3.77489	3.75862	3.79726	3.79208	3.80012	3.80551	3.84037	3.85998	3.88502	3.90635	3.92893	3.94961	3.9765	3.98208	3.9995	4.02207	4.03008	4.0162	3.99654	3.94544	3.90216	3.87255	3.83671	3.78433	3.72522	3.67276	3.63882	3.5874	3.5543	3.62649	3.67218	3.72243	3.77875	3.83607	3.89746	3.95663	4.01816	4.07515	4.11224	4.08255	4.03828	3.98452	3.91581	3.82749	3.73298	3.68526	3.67542	3.66388	3.65981	3.6586	3.67184	3.68898	3.71074	3.7423	3.77557	3.85057	3.87124	3.82071	3.75122	3.72428	3.69276	3.7209	3.72501	3.70981	3.71166	3.71842	3.73122	3.74927	3.76358	3.80475	3.86062	3.88124	3.89428	3.91776	3.91058	3.85491	3.78517	3.70532	3.64247	3.60999	3.60859	3.61308	3.61802	3.58791	3.6158	3.67275	3.75843	3.79984	3.83805	3.87158	3.9072	3.935	3.96479	3.9507	3.95442	3.96681	3.97076	3.9781	3.98278	3.98522	3.99013	3.99729	3.98437	3.96927	3.92435	3.87945	3.83614	3.79175	3.75501	3.7272	3.71111	3.72013	3.73158	3.73418	3.7209	3.70874	3.70234	3.69223	3.69175	3.76381	3.79538	3.80479	3.81528	3.82239	3.83913	3.82425	3.80471	3.78779	3.72862	3.66946	3.64485	3.59399	3.5403	3.47208	3.44884	3.46525	3.4771	3.49236	3.52409	3.55668	3.5938	3.63555	3.67925	3.71989	3.71053	3.72985	3.73607	3.74811	3.75579	3.76604	3.77677	3.79508	3.75588	3.71339	3.55797	3.40624	3.59491	3.54633	3.49308	3.45349	3.44165	3.39401	3.38314	3.42455	3.47619	3.53359	3.59133	3.60176	3.6109	3.63952	3.67332	3.72061	3.78706	3.84231	3.8821	3.90602	3.93781	3.97021	3.99523	4.01796	4.02208	4.02222	3.98837	3.95352	3.91511	3.85772	3.8167	3.7599	3.74081	3.72443	3.70522	3.75912	3.7164	3.70012	3.67897	3.66682	3.69433	3.72419	3.74045	3.74889	3.76532	3.77465	3.7886	3.79798	3.7977	3.70685	3.6336	3.69723	3.70801	3.7208	3.73158	3.74669	3.73803	3.70633	3.67008	3.62941	3.58721	3.53506	3.48395	3.41952	3.35031	3.28023	3.20154	3.12546	3.04472	2.96479	2.88171	2.80157	2.71523	2.8003
