Acq. time (s)=	4
Accumulations=	3
Range=	Off
Autofocus=	At all XY pixels
SWIFT=	Off
AutoExposure=	Off
Spike filter=	Multiple accum.
Delay time (s)=	0
Binning=	1
Readout mode=	Signal
DeNoise=	Standard
ICS correction=	On
Dark correction=	Off
Inst. Process=	Off
Instrument=	LabRAM S3000
Detector=	Synapse
Objective=	x100
Grating=	1800
ND Filter=	25%
Laser (nm)=	632.81 
Spectro (cm-¹)=	521.228
Slit=	100.021
Hole=	199.981
Microscope=	Principal
StageXY=	Märzhauser
StageZ=	Märzhauser
Z (µm)=	-582.9
Project=	
Sample=	
Site=	
Title=	SOP_200nm_furu_p0.25
Remark=	
Date=	14.06.2019 11:48
Operator=	
Acquired=	14.06.2019 11:48:00
		358.285	358.609	358.934	359.26	359.585	359.909	360.235	360.56	360.886	361.21	361.535	361.859	362.185	362.51	362.834	363.16	363.485	363.809	364.135	364.459	364.784	365.108	365.434	365.758	366.083	366.407	366.733	367.057	367.381	367.705	368.03	368.355	368.68	369.004	369.328	369.652	369.978	370.302	370.626	370.95	371.274	371.598	371.923	372.248	372.572	372.896	373.22	373.544	373.868	374.192	374.516	374.84	375.164	375.49	375.813	376.137	376.461	376.785	377.109	377.433	377.757	378.081	378.404	378.728	379.052	379.376	379.699	380.023	380.347	380.671	380.994	381.318	381.642	381.965	382.288	382.611	382.935	383.258	383.582	383.906	384.229	384.553	384.876	385.2	385.522	385.845	386.169	386.492	386.816	387.139	387.463	387.785	388.108	388.431	388.755	389.078	389.402	389.723	390.047	390.37	390.693	391.015	391.338	391.662	391.985	392.307	392.63	392.953	393.276	393.598	393.921	394.244	394.566	394.889	395.212	395.535	395.857	396.18	396.503	396.825	397.148	397.471	397.792	398.115	398.437	398.76	399.083	399.404	399.727	400.049	400.372	400.694	401.016	401.339	401.66	401.983	402.304	402.627	402.95	403.271	403.594	403.915	404.238	404.559	404.882	405.203	405.526	405.847	406.17	406.491	406.814	407.135	407.456	407.778	408.1	408.422	408.743	409.066	409.387	409.708	410.03	410.351	410.674	410.995	411.316	411.638	411.959	412.282	412.602	412.923	413.246	413.567	413.888	414.21	414.531	414.852	415.174	415.495	415.815	416.136	416.458	416.779	417.1	417.421	417.743	418.064	418.384	418.705	419.027	419.348	419.668	419.989	420.311	420.632	420.952	421.273	421.593	421.914	422.236	422.556	422.877	423.197	423.518	423.838	424.16	424.481	424.801	425.121	425.442	425.762	426.083	426.403	426.723	427.044	427.365	427.686	428.006	428.326	428.647	428.967	429.287	429.607	429.927	430.248	430.568	430.888	431.208	431.528	431.848	432.169	432.489	432.809	433.129	433.449	433.769	434.088	434.408	434.728	435.048	435.368	435.688	436.008	436.327	436.647	436.967	437.287	437.606	437.926	438.245	438.565	438.885	439.205	439.523	439.843	440.163	440.483	440.802	441.121	441.44	441.76	442.08	442.4	442.718	443.037	443.357	443.677	443.995	444.315	444.634	444.954	445.272	445.591	445.911	446.229	446.549	446.868	447.186	447.506	447.825	448.143	448.463	448.782	449.1	449.419	449.739	450.057	450.376	450.695	451.013	451.333	451.65	451.97	452.288	452.607	452.926	453.244	453.563	453.881	454.2	454.518	454.837	455.155	455.474	455.792	456.111	456.428	456.748	457.065	457.384	457.702	458.021	458.338	458.658	458.975	459.294	459.612	459.929	460.248	460.566	460.884	461.202	461.519	461.838	462.156	462.475	462.792	463.109	463.428	463.746	464.063	464.382	464.699	465.016	465.335	465.652	465.97	466.288	466.606	466.923	467.242	467.559	467.876	468.193	468.512	468.829	469.146	469.463	469.782	470.099	470.416	470.733	471.05	471.369	471.686	472.003	472.32	472.637	472.954	473.272	473.589	473.906	474.223	474.54	474.857	475.174	475.492	475.809	476.126	476.442	476.759	477.076	477.393	477.71	478.026	478.343	478.66	478.977	479.293	479.61	479.928	480.245	480.562	480.878	481.195	481.512	481.828	482.145	482.461	482.777	483.093	483.41	483.726	484.043	484.359	484.676	484.992	485.309	485.625	485.942	486.258	486.575	486.889	487.206	487.522	487.839	488.155	488.471	488.788	489.104	489.419	489.735	490.051	490.368	490.684	490.999	491.315	491.631	491.947	492.264	492.578	492.895	493.211	493.527	493.842	494.158	494.474	494.79	495.104	495.421	495.737	496.051	496.367	496.683	496.998	497.314	497.63	497.944	498.26	498.576	498.891	499.206	499.522	499.837	500.153	500.469	500.783	501.099	501.413	501.729	502.043	502.359	502.675	502.989	503.305	503.619	503.935	504.249	504.565	504.879	505.195	505.509	505.825	506.139	506.454	506.769	507.084	507.398	507.714	508.028	508.343	508.658	508.973	509.287	509.601	509.917	510.231	510.546	510.86	511.174	511.489	511.803	512.119	512.433	512.747	513.062	513.376	513.69	514.005	514.319	514.633	514.948	515.262	515.576	515.891	516.204	516.518	516.832	517.147	517.461	517.775	518.088	518.403	518.717	519.031	519.344	519.659	519.973	520.287	520.6	520.914	521.229	521.542	521.856	522.169	522.483	522.797	523.111	523.425	523.738	524.052	524.365	524.679	524.992	525.305	525.62	525.934	526.247	526.56	526.874	527.187	527.5	527.814	528.127	528.44	528.753	529.067	529.38	529.693	530.006	530.32	530.633	530.946	531.259	531.572	531.885	532.198	532.512	532.825	533.138	533.451	533.764	534.077	534.39	534.702	535.015	535.328	535.641	535.953	536.266	536.579	536.892	537.204	537.517	537.83	538.142	538.455	538.768	539.08	539.392	539.705	540.018	540.331	540.642	540.955	541.268	541.58	541.893	542.204	542.517	542.83	543.141	543.454	543.766	544.079	544.39	544.703	545.015	545.327	545.639	545.952	546.263	546.575	546.888	547.199	547.511	547.824	548.135	548.447	548.76	549.071	549.383	549.694	550.007	550.319	550.63	550.942	551.253	551.565	551.876	552.189	552.5	552.812	553.123	553.435	553.746	554.058	554.369	554.681	554.992	555.304	555.615	555.927	556.237	556.55	556.86	557.172	557.483	557.795	558.106	558.416	558.728	559.039	559.351	559.662	559.972	560.284	560.595	560.905	561.217	561.528	561.838	562.15	562.46	562.771	563.083	563.393	563.704	564.015	564.326	564.636	564.947	565.258	565.569	565.879	566.189	566.501	566.811	567.122	567.432	567.743	568.054	568.364	568.674	568.984	569.296	569.606	569.916	570.226	570.536	570.847	571.158	571.468	571.778	572.088	572.398	572.708	573.018	573.329	573.639	573.95	574.26	574.57	574.88	575.19	575.5	575.81	576.12	576.429	576.739	577.049	577.359	577.669	577.979	578.289	578.598	578.908	579.218	579.528	579.837	580.147	580.457	580.767	581.076	581.386	581.694	582.004	582.314	582.623	582.933	583.242	583.552	583.862	584.171	584.479	584.789	585.098	585.408	585.718	586.027	586.335	586.645	586.954	587.263	587.573	587.881	588.19	588.5	588.809	589.119	589.426	589.736	590.045	590.354	590.662	590.972	591.281	591.589	591.898	592.207	592.515	592.824	593.134	593.441	593.751	594.06	594.367	594.677	594.986	595.294	595.603	595.912	596.219	596.528	596.836	597.145	597.454	597.762	598.071	598.378	598.687	598.995	599.304	599.611	599.92	600.228	600.537	600.846	601.153	601.462	601.77	602.077	602.386	602.693	603.002	603.309	603.618	603.926	604.234	604.542	604.85	605.158	605.465	605.774	606.081	606.39	606.697	607.004	607.313	607.62	607.927	608.236	608.543	608.85	609.159	609.466	609.773	610.081	610.389	610.696	611.004	611.311	611.618	611.925	612.234	612.541	612.848	613.155	613.463	613.77	614.077	614.384	614.691	614.999	615.306	615.613	615.92	616.227	616.535	616.842	617.149	617.456	617.762	618.069	618.376	618.684	618.991	619.298	619.604	619.911	620.218	620.524	620.831	621.138	621.444	621.751	622.058	622.366	622.672	622.979	623.286	623.592	623.899	624.205	624.512	624.818	625.125	625.431	625.738	626.044	626.349	626.656	626.962	627.269	627.575	627.881	628.188	628.494	628.8	629.107	629.413	629.719	630.024	630.331	630.637	630.943	631.25	631.556	631.861	632.167	632.473	632.779	633.085	633.392	633.696	634.003	634.309	634.615	634.919	635.226	635.532	635.838	636.142	636.448	636.754	637.06	637.365	637.671	637.977	638.282	638.588	638.894	639.198	639.504	639.81	640.114	640.42	640.726	641.031	641.337	641.642	641.947	642.253	642.557	642.863	643.169	643.473	643.779	644.083	644.389	644.693	644.999	645.305	645.609	645.914	646.219	646.524	646.829	647.134	647.438	647.744	648.048	648.354	648.658	648.962	649.268	649.572	649.877	650.181	650.487	650.791	651.095	651.4	651.704	652.01	652.314	652.618	652.923	653.227	653.533	653.836	654.14	654.446	654.75	655.054	655.357	655.663	655.967	656.27	656.576	656.879	657.183	657.488	657.792	658.096	658.4	658.705	659.009	659.312	659.616	659.92	660.225	660.529	660.832	661.136	661.44	661.745	662.048	662.352	662.655	662.959	663.263	663.566	663.871	664.175	664.478	664.782	665.085	665.389	665.692	665.996	666.299	666.602	666.906	667.209	667.514	667.817	668.121	668.424	668.728	669.031	669.334	669.638	669.941	670.244	670.547	670.851	671.154	671.456	671.759	672.062	672.365	672.669	672.972	673.275	673.578	673.881	674.184	674.487	674.791	675.092	675.395	675.698	676.002	676.305	676.608	676.911	677.212	677.515	677.818	678.121	678.424	678.726	679.029	679.332
-20	-20	5.31188	5.62385	5.90278	6.14791	6.30661	6.33879	6.33422	6.32868	6.31663	6.30435	6.28697	6.26946	6.25051	6.23302	6.12186	6.01028	5.91388	5.8249	5.75913	5.72266	5.7083	5.71749	5.76991	5.84051	5.91501	6.01955	6.14644	6.13152	6.12531	6.14314	6.14472	6.12579	6.08261	6.0045	5.88845	5.81438	5.82803	5.85255	5.86631	5.83291	5.79766	5.7665	5.7374	5.71981	5.70401	5.69679	5.69169	5.62469	5.55941	5.49652	5.4345	5.37509	5.32788	5.29685	5.28335	5.30099	5.31116	5.33358	5.3712	5.4223	5.48466	5.54729	5.61287	5.67581	5.74126	5.7997	5.85656	5.86304	5.87324	5.84031	5.79338	5.74067	5.68197	5.58977	5.5353	5.5041	5.45959	5.45384	5.44924	5.46855	5.50166	5.51018	5.51618	5.52625	5.48505	5.48518	5.47886	5.43921	5.34373	5.30718	5.32376	5.44676	5.47105	5.47536	5.47423	5.46978	5.47088	5.50397	5.53536	5.56716	5.60065	5.6415	5.68033	5.70615	5.69399	5.67686	5.62753	5.57381	5.52771	5.49423	5.46932	5.4508	5.43764	5.41473	5.34044	5.26141	5.20035	5.18593	5.17415	5.15896	5.15417	5.17036	5.19963	5.22913	5.25156	5.21037	5.18678	5.18243	5.16973	5.22777	5.29839	5.37961	5.41361	5.473	5.46125	5.44188	5.47425	5.45347	5.3956	5.30345	5.23461	5.15565	5.10435	5.0634	5.02177	4.98897	4.97912	4.98298	4.98747	4.98612	4.9689	4.96147	4.9571	4.9575	4.95809	4.95051	4.98655	5.0213	5.06376	5.10695	5.15432	5.20836	5.24567	5.27529	5.31075	5.32954	5.3529	5.36805	5.40487	5.40475	5.40653	5.39657	5.38359	5.35142	5.33178	5.30648	5.29789	5.28188	5.27625	5.26587	5.26672	5.26235	5.26967	5.28451	5.31108	5.35768	5.40174	5.43263	5.468	5.50798	5.53904	5.56871	5.59857	5.62025	5.64054	5.62412	5.61985	5.60934	5.60927	5.6138	5.61364	5.6076	5.65372	5.67059	5.6699	5.66166	5.66442	5.65912	5.66075	5.66225	5.65838	5.63712	5.47704	5.3484	5.28874	5.29629	5.51853	5.7363	5.94812	6.12755	6.28905	6.36806	6.41761	6.44771	6.41328	6.39579	6.33823	6.27923	6.21407	6.14691	6.07807	6.0114	5.94283	5.88062	5.82366	5.76611	5.73738	5.69849	5.6792	5.67563	5.68198	5.698	5.71759	5.77222	5.82647	5.89376	5.95923	6.02311	6.08786	6.14341	6.08784	6.01962	5.95275	5.88656	5.84845	5.79972	5.7723	5.75835	5.74744	5.73475	5.7231	5.66107	5.53612	5.41197	5.34613	5.30842	5.27518	5.24018	5.19542	5.16826	5.1572	5.172	5.21601	5.32326	5.35588	5.39474	5.43472	5.47587	5.52213	5.55961	5.60073	5.60933	5.48736	5.33232	5.30309	5.29938	5.29671	5.41811	5.43141	5.44265	5.44145	5.40596	5.35648	5.30882	5.26282	5.22226	5.17884	5.14402	5.13011	5.12459	5.12686	5.12628	5.15995	5.18017	5.19136	5.19729	5.18979	5.18379	5.17608	5.16392	5.15023	5.13547	5.12289	5.10958	5.09829	5.0869	5.0772	5.06817	5.06044	5.05419	5.03495	5.00977	4.99829	4.99831	5.0024	5.01756	5.05559	5.06183	5.07007	5.07787	5.08738	5.09725	5.107	5.11594	5.12608	5.13877	5.15557	5.17061	5.20277	5.22663	5.24686	5.26651	5.29191	5.31527	5.36215	5.39541	5.40663	5.41543	5.41959	5.42178	5.404	5.3246	5.27156	5.21216	5.15708	5.08864	5.03466	4.97736	5.0041	5.06313	5.1411	5.2122	5.27296	5.33989	5.39656	5.45895	5.51405	5.5669	5.58843	5.59542	5.61245	5.63621	5.66571	5.68876	5.69945	5.71896	5.71848	5.71162	5.7087	5.69923	5.695	5.68396	5.67763	5.66459	5.62821	5.5948	5.56195	5.53066	5.5047	5.48353	5.46129	5.51359	5.56277	5.5825	5.60935	5.63102	5.66511	5.70517	5.79768	5.8807	5.94084	6.01583	6.06741	6.12095	6.166	6.15967	6.14824	6.13444	6.11709	6.05731	6.02166	6.00875	6.03624	6.0608	6.07813	6.09222	6.1134	6.12473	6.18763	6.2866	6.39106	6.40579	6.42333	6.43973	6.41036	6.38877	6.344	6.31172	6.28096	6.25656	6.23347	6.22283	6.22164	6.25378	6.29452	6.36585	6.49124	6.60845	6.73108	6.86847	7.01404	7.1656	7.33676	7.47927	7.65881	7.78617	7.92116	8.06058	8.19964	8.35134	8.50499	8.6626	8.82932	8.99817	9.17234	9.32191	9.50534	9.68363	9.86031	10.0614	10.2771	10.5071	10.7614	11.0317	11.3624	11.7121	12.0802	12.4675	12.7916	13.1582	13.7635	14.5507	15.195	15.9743	16.8155	17.7163	18.8432	19.6477	21.0336	22.3324	24.2269	26.2741	28.8982	32.0274	35.7684	40.2842	45.1344	51.3295	58.6437	67.8086	79.4207	94.7229	113.243	134.303	168.985	199.324	256.735	303.38	369.154	412.597	437.048	419.815	376.808	321.369	256.248	214.482	170.899	142.67	116.604	97.3301	83.5528	73.6215	63.5806	53.8087	47.1014	40.6272	38.6542	35.0163	32.0903	29.0368	26.578	24.2592	22.3414	20.6694	19.2896	17.9564	16.8498	15.8677	15.0811	14.4069	13.8286	13.3991	13.0532	12.7758	12.4737	12.2013	11.922	11.5963	11.2618	10.9223	10.6039	10.2579	9.9759	9.72223	9.47132	9.21075	8.95863	8.69561	8.48681	8.28976	8.11024	7.95364	7.80411	7.66434	7.54429	7.42122	7.33609	7.25555	7.18448	7.1168	7.05521	6.99721	6.94188	6.89136	6.83974	6.79421	6.74637	6.6905	6.63949	6.61164	6.529	6.43974	6.35237	6.28043	6.20748	6.13491	6.0709	6.00844	5.95221	5.90315	5.86725	5.8309	5.87888	5.91968	5.96084	5.99855	6.03876	6.07742	6.11537	6.14751	6.16791	6.17137	6.10693	6.04206	5.96859	5.89159	5.80687	5.73881	5.64222	5.55428	5.46987	5.39487	5.36787	5.33138	5.29141	5.27261	5.26186	5.24929	5.24217	5.23689	5.22737	5.20743	5.18109	5.09869	5.02628	4.94047	4.84502	4.75567	4.67483	4.62505	4.57054	4.52412	4.53529	4.56368	4.5927	4.62877	4.66224	4.69142	4.72635	4.71506	4.69864	4.69108	4.66644	4.62407	4.5809	4.53513	4.50271	4.46626	4.41794	4.40438	4.41395	4.43332	4.46513	4.50498	4.54214	4.579	4.62075	4.65661	4.69793	4.75016	4.78221	4.80538	4.80325	4.73235	4.61749	4.48242	4.35931	4.27171	4.38039	4.48406	4.60156	4.68306	4.6911	4.68805	4.68303	4.68395	4.6675	4.64105	4.611	4.57926	4.53417	4.49203	4.44972	4.40934	4.37393	4.33747	4.32297	4.31167	4.31481	4.37297	4.39452	4.39655	4.39066	4.38912	4.38936	4.39509	4.40193	4.41543	4.42953	4.43101	4.43162	4.41371	4.3772	4.37802	4.38282	4.38982	4.43404	4.47021	4.51816	4.55613	4.57863	4.60523	4.60663	4.61029	4.60483	4.59964	4.54279	4.49083	4.44741	4.40663	4.37547	4.34473	4.34383	4.38225	4.40337	4.43454	4.4371	4.42441	4.421	4.41348	4.41102	4.41023	4.40863	4.41651	4.43114	4.44922	4.46119	4.42414	4.38912	4.35732	4.32451	4.34709	4.3605	4.38699	4.41708	4.45429	4.49607	4.53258	4.56502	4.60176	4.6349	4.66666	4.69725	4.71017	4.71791	4.72692	4.71154	4.69835	4.66886	4.63679	4.60974	4.5759	4.51898	4.47169	4.43041	4.40117	4.35608	4.42372	4.52024	4.65434	4.72647	4.79546	4.82534	4.72689	4.61799	4.38749	4.32574	4.37959	4.71605	4.82041	4.80856	4.79264	4.82116	4.85169	4.91326	4.94182	4.99316	4.96848	4.89993	4.71357	4.81058	4.85322	4.82203	4.79001	4.75543	4.72284	4.69924	4.66469	4.6942	4.73587	4.82063	4.92404	4.92761	4.87521	4.88795	4.91465	4.96604	4.98783	4.99216	5.01359	5.03389	5.04669	5.05843	5.06559	5.07105	5.08254	5.09006	5.08311	5.10473	5.14652	5.18975	5.23584	5.31756	5.38492	5.40705	5.42516	5.4343	5.40207	5.37098	5.28879	5.20873	5.16412	5.07407	5.07292	5.08722	5.1521	5.20654	5.26507	5.2992	5.28337	5.27294	5.25987	5.22317	5.183	5.14679	5.10539	5.06617	5.0202	4.95231	4.8815	4.81853	4.75957	4.706	4.64714	4.62348	4.64054	4.63651	4.64075	4.65111	4.66362	4.68266	4.68893	4.6685	4.65282	4.63805	4.62782	4.61965	4.61312	4.61329	4.61161	4.60949	4.61294	4.61896	4.62705	4.63726	4.65001	4.66778	4.6834	4.70361	4.72175	4.74414	4.76475	4.78911	4.81127	4.83642	4.85986	4.88526	4.8994	4.90951	4.91796	4.92855	4.93734	4.95295	4.96941	4.96796	4.94441	4.91835	4.89175	4.86914	4.84256	4.82191	4.79836	4.77785	4.76054	4.74738	4.72835	4.75949	4.7901	4.79091	4.78882	4.79677	4.75454	4.69889	4.66571	4.65648	4.69352	4.90729	5.02308	5.1064	5.17453	5.2191	5.194	5.163	5.13243	5.09441	5.05826	5.00735	4.96522	4.92502	4.88776	4.82038	4.77163	4.77565	4.75817	4.72961	4.72411	4.71842	4.70788	4.73061	4.76294	4.81824	4.81978	4.8166	4.8482	4.8588	4.86274	4.88603	4.90238	4.90562	4.91047	4.9158	4.92793	4.94146	4.95506	4.97029	4.98766	5.0025	5.02758	5.03882	5.05724	5.06403	5.0789	5.08763	5.04991	4.99143	4.93217	4.84771	4.78522	4.79126	4.79362	4.79767	4.80233	4.75978	4.71732	4.68234	4.64709	4.62145	4.59378	4.58004	4.5521	4.55327	4.55103	4.64658	4.70501	4.75377	4.77838	4.79855	4.77435	4.72542	4.70646	4.69275	4.68063	4.67259	4.66538	4.68088	4.68721	4.70789	4.72581	4.73321	4.74462	4.75235	4.75798	4.76467	4.76532	4.7701	4.76521	4.76357	4.7416	4.7347	4.72818	4.72274	4.71822	4.71306	4.71043	4.70585	4.70442	4.7006	4.69882	4.69248	4.68653	4.67531	4.6655	4.64067	4.61299	4.56364	4.46944	4.39059	4.31536	4.43767	4.58117	4.54009	4.51526	4.49368	4.64075
-20	0	5.10181	5.01809	4.89634	4.72043	4.58709	4.44244	4.3519	4.21212	4.09941	4.02231	3.98722	3.93782	3.97795	4.02066	4.08656	4.13686	4.19392	4.26882	4.3303	4.40938	4.48713	4.55933	4.52749	4.48124	4.42495	4.38569	4.32809	4.32657	4.3218	4.30926	4.2904	4.27911	4.27907	4.25164	4.21459	4.17208	4.17136	4.14686	4.12477	4.03176	3.95102	3.88325	3.82593	3.89876	3.88505	3.89542	3.88858	3.87899	3.89717	3.94505	3.96976	4.01419	4.0209	4.03346	4.05001	4.06829	4.08383	4.11458	4.13911	4.165	4.18841	4.22832	4.13766	4.02752	3.95944	3.93331	3.93035	3.97176	4.04126	4.07532	4.07034	4.08505	4.07807	4.06316	4.06813	3.95277	4.00807	4.10135	4.16499	4.15365	4.12714	4.13933	4.21781	4.2858	4.39718	4.56988	4.62127	4.54071	4.4225	4.34846	4.34991	4.27502	4.25525	4.16299	4.08319	4.01873	3.99408	3.95167	3.92918	3.92202	3.95751	4.03107	4.07959	4.07959	4.09371	4.1091	4.13675	4.17164	4.17521	4.17416	4.15493	4.11757	4.01394	3.9364	3.83819	3.73702	3.69243	3.6802	3.69453	3.73496	3.78832	3.83601	3.87942	3.95604	3.98969	4.00155	4.03595	4.04406	4.00701	3.97057	3.88336	3.77185	3.66533	3.63109	3.61917	3.6753	3.76325	3.85383	3.93886	4.00768	4.07814	3.88604	3.8114	4.1982	4.21504	4.23083	4.22314	4.20982	4.19852	3.86709	3.89278	4.04498	4.1346	4.07872	4.02523	3.9609	3.92653	3.88441	3.87649	3.88638	3.92136	3.95745	4.01064	4.05283	4.11572	4.16447	4.20549	4.22619	4.23278	4.24244	4.25659	4.26974	4.28256	4.27674	4.27619	4.26462	4.23927	4.25111	4.33326	4.39467	4.44903	4.44971	4.48762	4.47855	4.48827	4.4937	4.49327	4.40106	4.36974	4.39366	4.41955	4.42831	4.4107	4.38757	4.29924	4.22578	4.15058	4.06432	4.09132	4.10235	4.05824	3.92147	3.76003	3.61306	3.46639	3.33321	3.24606	3.78767	3.94646	4.09376	4.12724	4.1715	4.22906	4.30215	4.35197	4.38334	4.41841	4.46589	4.48569	4.4789	4.46266	4.41067	4.34753	4.31906	4.31994	4.3723	4.39407	4.36917	4.34119	4.31067	4.26452	4.24773	4.25305	4.23139	4.22577	4.14569	4.10297	4.04474	4.0233	3.9856	4.00475	4.05245	4.11144	4.16181	4.17868	4.18582	4.1809	4.17194	4.03952	4.01639	4.05871	4.31119	4.36745	4.33037	4.33425	4.35708	4.39405	4.36325	4.10471	3.90453	3.82858	3.84797	3.93435	4.01313	4.03607	4.06174	4.06623	4.09601	4.12517	4.07046	4.04979	4.03787	4.06022	4.05185	4.04816	4.05144	4.05517	4.06327	4.07533	4.0911	3.93793	3.86342	3.82295	3.84402	3.89833	4.06846	4.19067	4.17124	4.13838	4.1126	4.12907	4.11576	4.09262	4.06216	4.03687	4.00162	3.97624	3.94094	3.90849	3.87172	3.82903	3.83408	3.82472	3.81999	3.79904	3.78402	3.7872	3.79733	3.80048	3.83172	3.87727	3.94118	4.0065	4.06369	4.09245	4.11405	4.08661	4.07971	4.0526	4.01739	3.9714	3.9356	3.85773	3.85213	3.84489	3.8509	3.85395	3.93058	3.9891	4.02619	3.96615	3.92558	3.89377	3.89176	3.89381	3.85946	3.81739	3.7711	3.75391	3.7324	3.69274	3.66448	3.65625	3.63529	3.69603	3.75014	3.92725	3.92643	3.906	3.64156	3.64829	3.70607	3.79057	3.72201	3.7714	3.94847	4.09149	4.05454	3.94758	3.84503	3.81056	3.85024	3.82445	3.80369	3.88732	3.89068	3.91695	3.95556	3.95234	3.95406	3.95093	3.93983	3.93305	3.91364	3.86307	3.84706	3.80974	3.83001	3.84092	3.86038	3.89146	3.95315	4.04032	4.11027	4.19529	4.28205	4.36054	4.45353	4.48972	4.50497	4.49176	4.46963	4.4261	4.41345	4.32539	4.25747	4.22238	4.18608	4.19517	4.175	4.13442	4.12103	4.09731	4.04597	3.97734	3.9592	3.99575	4.00091	4.02496	4.04937	4.08726	4.12009	4.1627	4.23111	4.30179	4.35148	4.38805	4.34152	4.31939	4.295	4.25894	4.22991	4.24405	4.27918	4.3442	4.42265	4.52376	4.68734	4.8146	4.96071	5.08402	5.1882	5.30601	5.25999	5.10465	4.90452	4.64318	4.4665	4.33288	4.22036	4.11523	3.9897	3.89532	3.90198	3.99382	4.19416	4.34432	4.52327	4.80343	5.05714	5.21028	5.37056	5.55118	5.72463	5.82991	5.92317	5.97934	5.90098	5.92023	5.95027	5.94861	5.93893	5.94799	5.9334	6.01667	6.09	6.14225	6.31175	6.42332	6.5414	6.76708	6.96043	7.1664	7.35294	7.57569	7.90437	8.21103	8.70631	9.18374	9.75766	10.4282	11.2495	12.2659	13.3295	14.8188	16.3406	18.2488	20.4335	22.9825	26.2686	29.9866	34.5276	40.0663	46.5303	56.0163	72.7521	92.5701	108.937	132.713	147.532	148.103	131.422	121.293	93.3954	77.2336	63.7862	52.2939	42.642	36.1052	32.9801	24.7065	22.6272	20.5264	19.212	16.91	15.1224	13.7789	12.6079	11.6246	10.8106	9.99402	9.38434	8.7934	8.37133	7.99386	7.67124	7.43262	7.2274	7.02197	6.84911	6.70715	6.58507	6.47588	6.36862	6.26127	6.13528	5.95477	5.8024	5.6865	5.58421	5.49477	5.43729	5.42586	5.41406	5.40118	5.43623	5.47389	5.46031	5.44491	5.43686	5.42759	5.39689	5.28471	5.17866	5.08856	5.00372	4.92379	4.85093	4.78089	4.68149	4.66008	4.53533	4.41601	4.31411	4.25385	4.18871	4.09175	3.97116	3.8615	3.76855	3.72715	3.73108	3.76027	3.82255	3.9085	4.00197	4.11133	4.22884	4.33352	4.35585	4.33047	4.28117	4.2419	4.232	4.19812	4.09169	4.00327	3.89614	3.83146	3.77147	3.74568	3.7168	3.73751	3.76325	3.83677	3.90341	3.98747	4.04314	4.09242	4.10938	4.15656	4.17733	4.16536	4.15706	4.15792	4.13461	4.124	4.08535	4.0604	4.04992	4.0483	4.05759	4.05711	4.04718	4.07997	4.12083	4.15771	4.14435	4.11911	4.10386	4.09127	3.99102	3.97671	3.97494	3.99005	4.01795	4.04615	4.07071	4.04711	4.02145	3.98121	3.94213	3.95425	3.9568	3.96327	4.047	4.0605	3.9861	3.92005	3.86485	3.84567	3.82926	3.84543	3.8734	3.91563	3.97695	4.03696	4.09393	4.01485	3.90076	3.84567	3.81744	3.77765	3.71091	3.65442	3.61525	3.53712	3.50415	3.50876	3.47053	3.44816	3.46054	3.4798	3.55574	3.6157	3.68094	3.74247	3.76453	3.74956	3.74669	3.72752	3.70773	3.67245	3.62214	3.59588	3.61941	3.6648	3.69256	3.66579	3.67238	3.68503	3.73269	3.73801	3.7555	3.80846	3.86582	3.95747	4.01624	4.07205	4.14651	4.0607	3.89788	3.78681	3.67524	3.57209	3.49973	3.55586	3.64292	3.69901	3.75929	3.79507	3.85592	3.85266	3.85307	3.82382	3.82458	3.801	3.73448	3.50432	3.51653	3.66517	3.72468	3.74882	3.73056	3.71373	3.7154	3.72294	3.743	3.77875	3.81298	3.84698	3.8719	3.89496	3.92201	3.87192	3.8009	3.72362	3.65603	3.6464	3.65082	3.67336	3.67881	3.61147	3.56441	3.57697	3.61385	3.66678	3.72716	3.76369	3.75922	3.72106	3.63159	3.57531	3.5213	3.48313	3.44491	3.42264	3.41448	3.43292	3.39742	3.37495	3.38697	3.42646	3.5079	3.6088	3.67745	3.68719	3.70722	3.7431	3.74543	3.72353	3.72389	3.72958	3.73034	3.7107	3.68888	3.67757	3.69956	3.71534	3.73666	3.76845	3.8133	3.8477	3.86225	3.87506	3.88574	3.8958	3.91334	3.91836	3.9304	3.97161	3.95581	3.94323	3.92338	3.9077	3.88329	3.8664	3.83748	3.8224	3.77883	3.75083	3.72744	3.7055	3.7196	3.73195	3.75207	3.77084	3.76497	3.79209	3.79319	3.80655	3.81995	3.82273	3.80458	3.82417	3.84274	3.88378	3.93674	3.98026	3.97641	3.95713	3.95822	3.94204	3.92226	3.9114	3.91559	3.9319	3.94069	3.95289	3.96655	3.9565	3.89424	3.82757	3.79775	3.82841	3.82558	3.81844	3.80631	3.80345	3.81092	3.83775	3.85504	3.88774	3.91046	3.92237	3.94596	3.99435	4.04386	4.07474	4.08132	4.0742	4.06017	4.07594	4.10452	4.11307	4.10602	4.09351	4.04649	4.01147	3.99087	3.9644	3.92435	3.88021	3.82179	3.74104	3.66943	3.61036	3.56227	3.53479	3.50016	3.52666	3.61313	3.72497	3.75923	3.76506	3.76917	3.75143	3.82831	3.88179	3.94055	3.99078	3.99131	3.99591	4.00723	4.04822	4.08481	4.09689	4.12597	4.11223	4.09082	4.08138	4.07769	4.05357	3.95431	3.8863	3.82218	3.75868	3.8095	3.82617	3.91607	4.01297	4.0404	4.04683	4.07162	4.07497	4.11373	4.16279	4.22875	4.2254	4.19119	4.14656	3.96757	3.77891	3.62467	4.16777	4.19184	4.18411	4.14487	4.07506	3.93909	3.83558	3.73609	3.70026	3.71309	3.75322	3.8364	3.94568	3.96568	3.95933	3.97633	4.00485	4.06308	4.14558	4.23101	4.26998	4.28872	4.22639	4.09313	3.99349	3.95313	3.89004	3.88548	3.8887	3.87312	3.85025	3.84043	3.80179	3.79379	3.91346	3.97291	3.94523	3.91101	3.83794	3.76373	3.65704	3.57035	3.52078	3.56687	3.58301	3.57201	3.60491	3.66704	3.73395	3.78549	3.81938	3.85363	3.88397	3.95527	3.97629	3.96693	3.95818	3.96094	3.93461	3.90454	3.88181	3.82426	3.81049	3.78278	3.80772	3.8059	3.80056	3.78374	3.78067	3.77763	3.77752	3.78935	3.79563	3.82689	3.83685	3.80795	3.78673	3.74938	3.70743	3.69004	3.66717	3.64861	3.65179	3.64869	3.64299	3.6517	3.67492	3.71023	3.75748	3.79598	3.85963	3.8726	3.87501	3.88157	3.86502	3.89061	3.89446	3.90036	3.90725	3.91739	3.86885	3.64999	3.66189	3.81333	3.77096	3.81608	3.70245	3.69291	3.67377	3.65529	3.65284	3.67442	3.70716	3.74544	3.81815	3.92274	4.19716	4.11745	3.883	3.8475
-20	20	3.40603	3.69043	4.09693	4.19098	4.25045	4.22375	4.28949	4.18431	4.09418	4.0057	3.92079	3.84277	3.75568	3.68237	3.63215	3.60952	3.61637	3.66891	3.72886	3.77003	3.77427	3.77334	3.77928	3.79237	3.79899	3.80709	3.81834	3.81906	3.79171	3.77274	3.72884	3.60893	3.48231	3.5936	3.92429	3.98045	4.01534	4.02664	3.45629	3.35831	3.36763	3.3959	3.44364	3.46744	3.46833	3.4857	3.52092	3.5571	3.57784	3.59853	3.63181	3.68598	3.75101	3.75504	3.75037	3.75497	3.74445	3.73841	3.73688	3.76101	3.77695	3.79445	3.81329	3.81253	3.82232	3.82846	3.88499	3.94609	3.98233	4.02094	4.05152	4.05668	3.93502	3.75408	3.71039	3.67226	3.64039	3.56366	3.51275	3.49416	3.50379	3.53924	3.59558	3.66666	3.75876	3.87501	3.90939	3.90369	3.90069	3.88992	3.88485	3.88106	3.87546	3.87025	3.86492	3.8592	3.83801	3.73292	3.67301	3.66747	3.70504	3.69636	3.73167	3.81289	3.76206	3.69417	3.62741	3.56033	3.5055	3.4618	3.44536	3.43843	3.43279	3.47725	3.53415	3.59128	3.65516	3.71934	3.78578	3.80982	3.81139	3.81111	3.81214	3.81148	3.81183	3.81088	3.81068	3.80988	3.80964	3.80962	3.80497	3.76942	3.73211	3.69912	3.66431	3.63821	3.63802	3.63624	3.64159	3.65763	3.68446	3.72045	3.75998	3.81312	3.87382	3.93542	3.97747	3.95983	3.91014	3.89203	3.91037	3.91881	3.9121	3.88905	3.85434	3.81502	3.76782	3.71889	3.68957	3.69174	3.72834	3.79622	3.87656	3.89421	3.90004	3.90316	3.90497	3.9163	3.93076	3.95266	3.91262	3.91203	3.90389	3.92328	3.99902	4.03388	4.04697	3.91122	3.94555	3.95443	3.92417	3.89215	3.86399	3.93677	3.9825	4.0718	4.15913	4.24864	4.33197	4.37719	4.41416	4.43612	4.46238	4.43774	4.39145	4.34363	4.28323	4.23436	4.13375	4.02434	3.92612	3.82785	3.73151	3.66712	3.60504	3.59035	3.5766	3.59118	3.60483	3.60867	3.63431	3.65872	3.69158	3.72031	3.74908	3.74484	3.74573	3.73042	3.73778	3.73956	3.73014	3.73996	3.77449	3.81297	3.8444	3.88509	3.92835	3.98751	4.01575	4.03879	4.06243	4.08266	4.1011	4.11561	4.08246	4.07347	4.06128	4.05606	4.04098	4.03286	4.01199	4.00102	3.98444	3.97223	3.9561	3.94315	3.92797	3.91471	3.89093	3.84597	3.80072	3.75697	3.72345	3.70912	3.69396	3.68538	3.71435	3.75243	3.79047	3.8143	3.80849	3.52193	3.79468	3.78722	3.77924	3.77342	3.76456	3.75497	3.74407	3.73127	3.71699	3.70062	3.68409	3.66476	3.64488	3.61539	3.59902	3.59665	3.61358	3.63137	3.65294	3.67853	3.70789	3.80192	3.84413	3.88771	3.92892	3.96768	4.00501	4.03776	4.05492	4.03412	4.0219	4.01756	4.01297	4.00963	4.00626	4.0026	3.99531	3.97543	3.98503	3.98651	3.95553	3.91447	3.87099	3.82783	3.78479	3.7414	3.70261	3.66151	3.62667	3.60677	3.55944	3.52439	3.55864	3.65835	3.72872	3.78248	3.82149	3.87228	3.91444	3.93077	3.94489	3.92382	3.92784	3.94068	3.94882	3.95126	3.99812	4.0156	4.01248	4.00096	3.97524	3.92063	3.84254	3.80295	3.929	3.97992	4.02791	4.06993	4.09694	4.08257	4.03985	4.04251	4.04644	4.07258	4.0991	4.09759	4.10113	4.07847	4.06647	4.05825	4.00427	3.9325	3.85815	3.77017	3.65966	3.62794	3.61904	3.57944	3.54423	3.58183	3.5952	3.65851	3.71638	3.77797	3.8471	3.91882	3.98975	4.00673	4.01593	4.01454	4.01359	4.01677	4.0221	4.04779	4.07929	4.13879	4.15656	4.07848	3.99456	3.91215	3.825	3.73661	3.67823	3.64435	3.60711	3.68088	3.74543	3.78773	3.86008	3.91443	3.93317	3.9478	3.96453	3.99388	3.97486	3.95622	3.94113	3.9366	3.9571	4.06313	4.04574	4.02847	4.00033	3.97162	3.94092	3.89986	3.82394	3.84974	3.91459	3.9418	3.96809	4.05411	4.10267	4.13905	4.16896	4.19905	4.21618	4.23776	4.24394	4.19623	4.11891	4.03565	3.95914	3.83531	3.86012	3.87741	3.88309	3.92386	3.97071	4.021	4.07874	4.11955	4.15203	4.18952	4.22686	4.26592	4.31737	4.34274	4.35353	4.36121	4.36413	4.37016	4.35512	4.34771	4.34063	4.33744	4.33168	4.33052	4.32559	4.32672	4.33589	4.3324	4.32882	4.32687	4.32587	4.32626	4.32449	4.29876	4.26263	4.22705	4.19806	4.18111	4.16933	4.17349	4.19599	4.26245	4.33439	4.40669	4.49382	4.58014	4.67028	4.75393	4.82397	4.90116	4.97906	5.058	5.11461	5.16703	5.20271	5.21664	5.23773	5.28831	5.37363	5.49923	5.79948	6.19039	6.70501	7.26866	8.14158	9.13049	10.5269	11.9474	13.9038	16.3762	18.8067	21.307	24.2931	26.695	27.6781	27.2096	23.1942	20.1016	17.036	14.4282	12.4312	10.6948	9.43044	8.26171	7.29906	6.86895	6.40013	6.13497	5.9246	5.74841	5.54858	5.43865	5.38014	5.25933	5.15191	5.03588	4.93174	4.82828	4.73261	4.64944	4.53091	4.42483	4.29103	4.20002	4.11656	4.07541	4.02986	3.99701	4.00605	3.9796	3.95263	3.93171	3.91976	3.87227	3.87565	3.88837	3.91993	3.94609	3.985	4.02738	4.08352	4.10155	4.14058	4.23942	4.23934	4.23564	4.23212	4.2306	4.2191	4.22962	4.24309	4.20978	4.16756	4.09342	4.02774	3.96705	3.93461	3.88282	3.81745	3.74668	3.71851	3.69513	3.70645	3.72186	3.70356	3.68993	3.67351	3.67436	3.67159	3.6739	3.67392	3.67239	3.6972	3.72096	3.75037	3.77873	3.81178	3.84419	3.87979	3.9155	3.9524	3.99046	4.02736	4.05425	4.03255	4.01756	4.02633	4.03135	4.03679	4.0398	4.03131	4.01579	3.99302	3.96758	3.94583	3.92912	3.91703	3.92549	3.94862	3.9741	4.00389	4.02492	4.05247	4.04811	4.01786	3.98448	3.95358	3.92002	3.88882	3.85991	3.81575	3.76043	3.73487	3.70211	3.68105	3.66622	3.67807	3.66947	3.6407	3.60818	3.57715	3.54985	3.52387	3.50465	3.48928	3.4858	3.48836	3.50104	3.52308	3.57419	3.72016	3.80603	3.93283	4.05728	4.07337	3.83946	3.86057	3.88252	3.91428	3.94647	3.96697	3.96106	3.93569	3.89692	3.68202	3.24175	2.61118	3.0596	3.7835	3.76798	3.74946	3.72228	3.72727	3.73098	3.73198	3.73652	3.7992	3.83067	3.83404	3.83062	3.83532	3.80762	3.74063	3.67702	3.61384	3.55426	3.4975	3.44037	3.40272	3.36557	3.31887	3.31967	3.35215	3.38967	3.43306	3.48038	3.52473	3.57976	3.62811	3.69681	3.70294	3.71039	3.71521	3.72153	3.7253	3.70334	3.69569	3.69534	3.67924	3.6659	3.64147	3.61967	3.59092	3.58114	3.56658	3.56228	3.53801	3.52159	3.7601	3.78344	3.80182	3.82118	3.84091	3.85735	3.87526	3.88978	3.90358	3.92272	3.93156	3.919	3.8901	3.83228	3.81831	3.80984	3.80333	3.80152	3.80085	3.8028	3.80708	3.81895	3.82395	3.82625	3.83263	3.85061	3.85683	3.85798	3.86109	3.86083	3.85972	3.85747	3.8287	3.82085	3.80877	3.78609	3.77907	3.75294	3.75035	3.76086	3.7522	3.77766	3.79313	3.82731	3.88907	3.95945	4.02576	4.04007	4.00766	4.0541	4.09818	4.0775	4.05253	4.02795	3.99913	3.96572	3.93363	3.83556	3.78847	3.7433	3.70108	3.64516	3.58674	3.54917	3.5124	3.50719	3.50383	3.48071	3.51617	3.52741	3.51255	3.48814	3.47307	3.44808	3.43342	3.41021	3.39608	3.37716	3.3646	3.34686	3.33882	3.33113	3.27218	3.30834	3.35051	3.39762	3.44681	3.502	3.55618	3.61609	3.72031	3.79247	3.86559	3.93035	3.95079	3.93662	3.91953	3.89369	3.86736	3.83111	3.79577	3.75244	3.71855	3.68427	3.68594	3.69339	3.7052	3.7955	3.87094	3.91775	3.98562	4.02136	4.02921	4.04615	4.03113	4.00927	3.98816	3.94525	3.90583	3.86213	3.80672	3.75596	3.70905	3.66793	3.63426	3.609	3.61315	3.63868	3.65709	3.69717	3.72959	3.76041	3.79684	3.83139	3.85722	3.84265	3.8247	3.81047	3.79728	3.78541	3.74427	3.69003	3.62701	3.584	3.54566	3.51684	3.49586	3.54057	3.58621	3.63873	3.68193	3.73211	3.76092	3.77662	3.7978	3.82139	3.84963	3.88021	3.91154	3.94659	3.98808	3.98742	3.97762	3.96494	3.94918	3.92189	3.90642	3.89121	3.82105	3.80797	3.7849	3.78306	3.77832	3.78961	3.79302	3.80759	3.83363	3.84889	3.86599	3.91957	3.94415	3.96313	3.98696	3.99494	4.00547	3.99954	3.99223	3.98407	3.91497	3.88323	3.80608	3.78816	3.76158	3.74448	3.72999	3.71816	3.70791	3.72347	3.72628	3.75748	3.7591	3.78052	3.77198	3.76157	3.74715	3.73325	3.71501	3.69809	3.6627	3.61963	3.57863	3.54264	3.49714	3.48234	3.47741	3.48279	3.49061	3.54842	3.58164	3.60415	3.62942	3.66715	3.68451	3.69867	3.71143	3.72562	3.73356	3.7098	3.69817	3.69381	3.69347	3.69281	3.70602	3.7209	3.74147	3.7621	3.7842	3.77886	3.77456	3.77249	3.79035	3.92317	3.96244	3.98223	4.00167	4.01666	4.02968	4.00609	3.98031	3.8763	3.7702	3.79949	3.83091	3.8626	3.89349	3.9234	3.95181	3.9793	4.00391	3.99413	3.98293	3.97218	3.95917	3.94178	3.76831	3.76243	3.7631	3.80926	3.88119	3.85513	3.87048	3.86119	3.85411	3.82338	3.8027	3.76387	3.7351	3.68779	3.63772	3.59789	3.56071	3.50909	3.4852	3.47331	3.51934	3.57176	3.62635	3.68584	3.72493	3.74347	3.7456	3.73165	3.71948	3.70921	3.70094	3.69478	3.69083	3.68888	3.68898	3.69086	3.69541	3.70141	3.7087	3.71708	3.7263	3.73609	3.74614	3.75611	3.76073	3.76018	3.73655	3.70965	3.67705	3.64262	3.6006	3.55724	3.5127	3.46021	3.41282	3.34384
0	-20	3.46834	3.69181	3.77778	3.84073	3.83248	3.81904	3.77356	3.61682	3.57979	3.58462	3.63833	3.71028	3.78943	3.87664	3.94558	4.0186	4.10726	4.19959	4.29238	4.34701	4.41134	4.37862	4.31675	4.21037	4.0992	3.98123	3.86906	3.77024	3.68179	3.60373	3.59584	3.67774	3.64479	3.65792	3.69212	3.74144	3.82841	3.93793	4.01761	4.11041	4.21892	4.31151	4.35127	4.37577	4.4378	4.501	4.55886	4.54389	4.47483	4.41081	4.37896	4.40154	4.46307	4.39702	4.34536	4.27949	4.21618	4.10112	4.05699	4.02215	3.99279	3.98133	3.97997	3.98938	4.03371	4.05556	4.06948	4.07885	4.0904	4.03839	4.12711	4.13176	4.13564	4.13069	4.12713	4.12575	4.15011	4.17417	4.23939	4.34538	4.37387	4.38918	4.36913	4.34164	4.31514	4.19621	3.88091	3.8616	3.85231	3.83838	3.80559	3.77625	3.77728	3.80742	3.81872	3.83831	3.88672	3.90532	3.94372	3.98968	4.05214	4.15028	4.12292	4.07325	4.0353	4.02166	4.03317	4.04164	4.02875	4.00058	3.93345	3.8598	3.85075	3.85162	3.87043	3.88798	3.93254	3.98088	3.99977	4.0215	4.04088	4.05435	4.03438	4.02586	4.00009	4.00844	3.99015	3.97713	3.98195	3.96433	3.99946	4.07407	4.14649	4.24307	4.25733	4.28117	4.30006	4.31313	4.30089	4.28945	4.27489	4.22482	4.20896	4.18654	4.16531	4.14157	4.10202	4.07561	4.07544	4.08249	4.05996	3.95509	3.90959	3.86364	3.75513	3.62193	3.49464	3.42993	3.39811	3.39354	3.43521	3.52246	3.6067	3.68075	3.71688	3.66418	3.71416	3.75488	3.80921	3.86262	3.9029	3.96094	4.00314	4.02589	4.0146	3.91202	3.86043	3.80593	3.77387	3.80354	3.85667	3.9203	4.00861	4.17619	4.2624	4.27537	4.27689	4.30809	4.30028	4.27996	4.27256	4.27051	4.26734	4.26646	4.26919	4.2839	4.29515	4.3013	4.32344	4.31709	4.31952	4.30413	4.26398	4.24612	4.2332	4.13055	4.01216	3.96364	3.97559	4.07531	4.14026	4.19776	4.26743	4.3073	4.35528	4.38775	4.41418	4.4573	4.4472	4.45728	4.45956	4.41359	4.37061	4.33216	4.27231	4.22867	4.21366	4.26075	4.31234	4.39144	4.48237	4.57748	4.69016	4.76273	4.79796	4.73297	4.64614	4.51264	4.39688	4.29941	4.20366	4.11745	4.03544	3.99227	3.91896	3.94158	3.94193	3.9381	3.90409	3.88238	3.96142	4.11022	4.18093	4.2054	4.21252	4.25562	4.23755	4.21445	4.15667	4.13496	4.10464	4.07078	4.00114	3.94216	3.90058	3.86581	3.83493	3.85104	3.87829	3.93776	4.01169	4.05047	4.05786	4.02782	4.05139	4.08224	4.12704	4.17767	4.17959	4.17715	4.17203	4.14501	4.12066	4.11415	4.08558	3.99718	3.88617	3.81124	3.75197	3.68012	3.64054	3.59333	3.60856	3.56608	3.54261	3.5593	3.61188	3.65087	3.65392	3.65654	3.72826	3.74343	3.76872	3.76104	3.76358	3.76782	3.75451	3.73899	3.72734	3.71622	3.76156	3.77657	3.77418	3.76615	3.75769	3.68335	3.66835	3.66578	3.69079	3.72001	3.74133	3.55274	3.47383	3.44032	3.44614	3.44635	3.47424	3.69591	3.74007	3.77548	3.83488	3.86042	3.75672	3.71937	3.68992	3.68072	3.68332	3.67094	3.66691	3.66103	3.68973	3.71589	3.75787	3.80748	3.85969	3.92253	3.99407	4.09564	4.1008	4.04358	3.94065	3.78731	3.48052	3.38572	3.32633	3.29302	3.38354	3.49871	3.56464	3.55427	3.56977	3.54687	3.51142	3.53004	3.56093	3.57321	3.55699	3.49915	3.46201	3.4777	3.47823	3.45939	3.4768	3.5126	3.57507	3.60309	3.61782	3.61882	3.64968	3.70677	3.75075	3.78282	3.81114	3.86491	3.87878	3.86921	3.83456	3.83172	3.85121	3.87922	3.93876	4.01631	4.1015	4.16719	4.19145	4.21978	4.24878	4.26713	4.30267	4.31915	4.27587	4.23187	4.24408	4.26198	4.28239	4.26294	4.25632	4.26441	4.26017	4.21576	4.20832	4.22558	4.26177	4.32552	4.39237	4.46266	4.50845	4.53971	4.57349	4.61168	4.76236	4.62121	4.62038	4.65233	4.5866	4.54307	4.47473	4.55422	4.5888	4.64199	4.66025	4.65222	4.63783	4.62001	4.59593	4.59624	4.59856	4.6386	4.69371	4.77259	4.86407	4.93192	5.01504	5.09665	5.1929	5.29187	5.36927	5.43642	5.50835	5.58114	5.65595	5.72579	5.79685	5.86402	5.9296	5.99275	6.05565	6.10924	6.14837	6.1881	6.21669	6.22647	6.23939	6.26137	6.34203	6.4727	6.59386	6.85254	7.09544	7.40585	7.71122	8.07196	8.41351	8.81022	9.18978	9.56417	9.91815	10.4044	10.9785	11.5045	12.1886	13.0008	14.0388	15.3041	16.9851	18.9461	21.6287	24.2744	27.7579	30.2725	36.0205	40.0882	46.0871	58.494	69.375	89.561	112.112	130.913	167.175	192.789	196.099	189.57	174.301	152.05	121.366	94.6246	75.9851	61.5752	51.1776	45.7761	37.3499	32.5374	26.5622	24.2915	22.1928	19.2668	18.3104	15.9921	14.8844	13.7776	12.8946	11.9907	11.2395	10.6124	10.0032	9.51639	9.08847	8.70514	8.3893	8.11988	7.89985	7.68718	7.43756	7.24686	7.07302	6.92412	6.80084	6.70765	6.60213	6.44065	6.289	6.14561	6.00124	5.86225	5.70627	5.53722	5.36799	5.25328	5.15392	5.09512	5.05047	5.06599	5.13188	5.18002	5.11839	5.03027	4.93339	4.83951	4.74573	4.66459	4.59718	4.54047	4.49577	4.45465	4.39382	4.35177	4.31523	4.33589	4.34063	4.42099	4.43589	4.40544	4.3429	4.26325	4.16548	4.09184	3.98757	3.88798	3.86957	3.91161	4.02321	4.14447	4.25501	4.3409	4.41533	4.41275	4.29926	4.31975	4.33044	4.27004	4.25445	4.26136	4.23058	4.20582	4.18463	4.15341	4.12833	4.10407	4.08051	4.03962	3.99777	3.97106	3.94963	3.94297	3.89584	3.90955	4.05301	4.05129	4.02133	4.00188	3.96425	3.89513	3.86362	3.79659	3.81458	3.86403	3.85608	3.75655	3.68409	3.60269	3.51653	3.49378	3.46972	3.45482	3.44974	3.46938	3.51525	3.53537	3.491	3.44384	3.42529	3.39177	3.41766	3.51113	3.60463	3.64851	3.72125	3.72885	3.74791	3.76381	3.74103	3.67449	3.64248	3.6083	3.59122	3.61769	3.65063	3.67913	3.72315	3.70199	3.63434	3.57172	3.59123	3.62152	3.63764	3.60953	3.67092	3.73871	3.86679	3.79676	3.74777	3.66199	3.40993	3.38106	3.4609	3.71319	3.7368	3.77746	3.82661	3.82427	3.85309	3.91686	3.84309	3.71106	3.57421	3.46267	3.35822	3.11919	3.05728	2.98954	3.1031	3.24482	3.41298	3.38857	3.43875	3.55451	3.56013	3.54774	3.52182	3.47196	3.40348	3.22205	3.37394	3.47551	3.51037	3.56199	3.5315	3.53707	3.52797	3.49842	3.40649	3.3614	3.33519	3.34168	3.36333	3.38195	3.4048	3.43352	3.47817	3.48838	3.49601	3.49854	3.49887	3.46645	3.46336	3.46716	3.48015	3.50066	3.50366	3.51782	3.53804	3.55528	3.5673	3.57703	3.59249	3.60098	3.60287	3.60681	3.60784	3.60663	3.60791	3.60215	3.58799	3.57961	3.57934	3.54384	3.56757	3.59474	3.63086	3.66238	3.72785	3.77169	3.82482	3.88739	3.96503	4.00251	4.04195	4.07041	4.09416	4.11199	4.09545	4.09357	4.05023	4.03802	3.96613	3.86156	3.7651	3.6858	3.63365	3.59678	3.59823	3.63535	3.63864	3.71622	3.76475	3.82182	3.80298	3.77761	3.75554	3.73127	3.70903	3.68594	3.65264	3.64956	3.64374	3.64506	3.64555	3.65227	3.66226	3.64418	3.60719	3.57698	3.5837	3.61347	3.60857	3.60901	3.59097	3.56804	3.55151	3.51158	3.47988	3.47908	3.50579	3.5147	3.50311	3.5474	3.62147	3.61432	3.59709	3.53132	3.58246	3.64812	3.69914	3.76824	3.80393	3.75355	3.75173	3.75314	3.7587	3.76473	3.77592	3.78457	3.79555	3.78992	3.76564	3.7949	3.76778	3.75569	3.73723	3.73264	3.75135	3.79127	3.82653	3.85006	3.91134	3.94352	3.98883	4.00546	4.02476	4.01446	4.01665	4.00991	3.98703	3.92011	3.87563	3.83215	3.79902	3.7912	3.78324	3.78118	3.75713	3.74968	3.75075	3.75915	3.72852	3.70053	3.64952	3.60842	3.57073	3.53699	3.50702	3.499	3.49206	3.49215	3.49458	3.4983	3.5088	3.51015	3.52511	3.54859	3.57194	3.60141	3.63025	3.66439	3.69679	3.748	3.78713	3.81939	3.84823	3.87733	3.9019	3.92649	3.90623	3.84171	3.74548	3.699	3.65271	3.62871	3.5979	3.58594	3.62879	3.70102	3.7402	3.78595	3.85466	3.84593	3.81595	3.79211	3.71743	3.69878	3.73212	3.75638	3.7343	3.74004	3.73618	3.72536	3.7139	3.70528	3.69783	3.69254	3.69019	3.6907	3.7027	3.70772	3.72209	3.67465	3.69598	3.72857	3.74774	3.7519	3.75767	3.75956	3.765	3.73915	3.63327	2.62477	3.68113	3.76421	3.79336	3.81577	3.84477	3.87053	3.87083	3.83487	3.84448	3.8263	3.8146	3.783	3.7128	3.70554	3.70653	3.70424	3.70125	3.66041	3.63537	3.61712	3.5972	3.59643	3.59265	3.59548	3.60161	3.62541	3.64898	3.68143	3.76295	3.81574	3.81365	3.78967	3.80874	3.80201	3.82351	3.8091	3.76464	3.73375	3.70386	3.69013	3.69632	3.70453	3.71385	3.71591	3.74227	3.75077	3.75828	3.7584	3.76156	3.77081	3.77342	3.77956	3.78374	3.78932	3.79088	3.79864	3.80894	3.81868	3.83964	3.85147	3.86264	3.87554	3.88546	3.90653	3.9149	3.90328	3.86374	3.84484	3.89728	3.86131	3.85629	3.74935	3.23243	3.87246	3.8608	3.8501	3.8386	3.83162	3.82907	3.81778	3.83962	3.85881	3.91956	3.95428	3.99667	3.97946	3.9245	3.88997	3.85097	3.77472	3.70231	3.63035	3.5709	3.53094	3.45896	3.42417	3.38169	3.38358	3.37553	3.37744	3.39998	3.45315	3.50462	3.60144	3.68	3.68448	3.62616	3.64448
0	0	4.01326	4.03883	4.059	4.07209	4.07902	4.13629	4.14252	4.10789	4.15199	4.18508	4.22988	4.25747	4.2662	4.26964	4.2822	4.2723	4.27212	4.27656	4.25213	4.22793	4.20216	4.17387	4.14232	4.11596	4.0519	3.96455	3.91083	3.86626	3.82294	3.78248	3.67417	3.65416	3.68686	3.71117	3.74412	3.78339	3.82688	3.86679	3.9155	3.96347	4.01438	4.0644	4.08325	4.0955	4.09127	4.07724	4.08837	4.07586	4.09163	4.1	4.11709	4.15235	4.1733	4.18993	4.20747	4.23779	4.20615	4.1861	4.14491	4.12577	4.10304	4.08127	4.06006	4.01869	3.97397	3.94866	3.96159	3.94689	3.9372	3.93655	3.96261	3.98871	4.01842	4.03865	4.07094	4.09494	4.10639	4.11354	4.11643	4.14081	4.13816	4.11876	4.09896	4.09668	4.06344	4.02418	3.99039	3.96025	3.96958	3.947	3.91406	3.9155	3.92487	3.94086	3.98511	4.02853	4.06967	4.10395	4.14606	4.18025	4.21205	4.24544	4.27269	4.30166	4.31175	4.3248	4.32685	4.30536	4.28253	4.26899	4.24944	4.22639	4.20623	4.18408	4.16295	4.13832	4.11548	4.09378	4.07168	4.06146	4.03079	4.00153	3.96887	3.93916	3.90616	3.87672	3.84509	3.81476	3.78746	3.75487	3.74215	3.73056	3.71764	3.71046	3.70513	3.70748	3.70966	3.71879	3.72832	3.77574	3.81084	3.84506	3.86691	3.89119	3.90951	3.9301	3.94462	3.96138	3.94674	3.95935	3.9434	3.93048	3.94334	3.95465	3.96944	3.9935	3.98298	3.9514	3.94856	3.99555	4.02856	4.05356	4.07614	4.10929	4.13625	4.09729	4.06446	4.02435	3.98642	3.9461	3.89999	3.87799	3.86508	3.85268	3.88489	3.9021	3.89599	3.83611	3.81884	3.8075	3.8506	3.88286	3.92309	3.96508	4.0055	4.05029	4.09446	4.13907	4.18462	4.22683	4.2719	4.30997	4.33358	4.31854	4.28621	4.27235	4.2602	4.22982	4.21006	4.19448	4.18247	4.17255	4.17633	4.18424	4.19594	4.22624	4.24038	4.25305	4.2622	4.27122	4.27504	4.28074	4.27199	4.27152	4.26552	4.26044	4.24178	4.21106	4.18872	4.13603	4.08793	4.0902	4.23239	4.26826	4.23216	4.16543	4.08865	3.94178	3.93785	3.94865	3.96003	3.98534	4.00702	3.96177	3.98668	4.02223	4.04798	4.07562	4.11216	4.10941	4.10242	4.09697	4.08716	4.07866	4.06457	4.07293	4.0563	4.04365	4.02344	4.02592	4.02917	4.03562	4.04429	4.05521	4.06936	4.08355	4.1123	4.13176	4.14442	4.12622	4.10552	4.07961	4.06241	4.03313	4.02994	4.02583	4.0238	4.04729	4.05283	4.05378	4.01411	3.98823	3.96854	3.95215	3.93158	3.94319	3.93974	3.94183	3.94429	3.93573	3.92387	3.9139	3.90595	3.89985	3.89541	3.89257	3.89119	3.89116	3.89235	3.89463	3.89789	3.90201	3.90689	3.90972	3.89293	3.87392	3.86799	3.84675	3.80875	3.77405	3.7323	3.69166	3.65036	3.61036	3.57298	3.5395	3.51217	3.56349	3.59947	3.65265	3.73414	3.81091	3.85893	3.89087	3.85499	3.81547	3.78028	3.7406	3.6909	3.67577	3.66072	3.67504	3.67813	3.67981	3.69039	3.69701	3.70744	3.71721	3.73071	3.72867	3.71441	3.70048	3.68977	3.61307	3.52528	3.51702	3.57828	3.667	3.63985	3.66829	3.697	3.733	3.57762	3.64632	3.73501	3.82169	3.88844	3.92462	3.95686	4.00927	4.00495	3.99801	3.99009	3.97656	3.96343	3.94843	3.93691	3.94332	3.93964	3.93177	3.94064	3.96296	3.98146	4.02554	4.04743	4.05749	4.06463	4.07514	4.06149	4.03949	4.01148	3.99155	3.96683	3.96703	3.97082	3.96993	3.9777	4.00201	3.97556	3.95759	3.93258	3.91043	3.88812	3.86555	3.84771	3.82743	3.81637	3.8012	3.79257	3.74829	3.78698	3.83462	3.88889	4.01451	4.07707	4.14028	4.1934	4.21832	4.22746	4.2391	4.25245	4.26931	4.28909	4.34202	4.37339	4.39455	4.43267	4.43414	4.43634	4.43756	4.38134	4.3641	4.34055	4.31644	4.29166	4.23674	4.21376	4.19913	4.18757	4.21772	4.24427	4.29263	4.26816	4.24977	4.23165	4.21148	4.19613	4.17878	4.16526	4.15171	4.14302	4.14708	4.1557	4.17591	4.20478	4.24666	4.29908	4.3667	4.50142	4.58604	4.63282	4.65278	4.61708	4.60008	4.63646	4.71293	4.80165	4.8457	4.89526	4.95057	5.01169	5.07901	5.17509	5.25188	5.3389	5.28205	5.23067	5.19059	5.19199	5.22835	5.30056	5.42124	5.59952	5.88543	6.14889	6.37036	6.62872	6.80969	7.00554	7.27494	7.53607	7.85007	8.1819	8.42797	8.6721	8.97584	9.35503	9.84092	10.4286	11.1176	11.9259	12.8321	13.9558	15.1759	16.5514	18.1411	20.1806	22.412	25.3498	28.7714	33.5108	40.0534	47.7263	57.1855	73.6568	88.1844	109.393	130.389	155.276	170.185	167.794	141.523	125.19	101.907	82.4735	65.4725	52.4141	41.8609	37.6806	30.928	26.4117	23.9741	21.1337	18.2541	16.52	15.1446	13.92	12.8306	11.8906	11.0714	10.3596	9.74833	9.2402	8.85902	8.58191	8.35187	8.05317	7.8626	7.58205	7.28197	7.0088	6.76743	6.55167	6.31838	6.19359	6.08264	5.99044	5.90813	5.83706	5.76283	5.62531	5.53914	5.4529	5.45063	5.46379	5.48577	5.51755	5.47965	5.43087	5.38452	5.32806	5.28077	5.22839	5.12448	4.96666	4.80247	4.66785	4.55735	4.49166	4.4144	4.40176	4.36497	4.32323	4.28523	4.22487	4.19624	4.15639	4.1349	4.13787	4.13498	4.14257	4.16653	4.20794	4.23294	4.2665	4.20575	4.08124	4.03149	4.07932	4.16506	4.22409	4.20748	4.18154	4.15059	4.12382	4.09763	4.07863	4.05762	4.07127	4.06976	4.06225	4.06116	4.01595	3.96923	3.93185	3.88964	3.83954	3.8154	3.78083	3.75113	3.72616	3.70485	3.68837	3.67341	3.65977	3.64796	3.63867	3.63292	3.62651	3.65113	3.64164	3.63166	3.64083	3.66365	3.68483	3.71177	3.74124	3.7697	3.80647	3.80897	3.79566	3.78174	3.76906	3.75703	3.74568	3.73771	3.72734	3.7145	3.70693	3.70105	3.69709	3.67293	3.65079	3.6269	3.61033	3.60858	3.60566	3.60533	3.60928	3.61488	3.62244	3.62911	3.63853	3.64777	3.65772	3.6681	3.68246	3.69248	3.70121	3.70973	3.7165	3.72321	3.72784	3.73256	3.73492	3.7375	3.73756	3.73786	3.73487	3.73347	3.72877	3.72495	3.71227	3.70482	3.69673	3.68402	3.6739	3.66413	3.65353	3.64304	3.63173	3.62238	3.61368	3.60516	3.59746	3.58989	3.58333	3.57668	3.57132	3.56525	3.56113	3.55559	3.55285	3.54836	3.54529	3.54215	3.5433	3.54138	3.53965	3.52934	3.5406	3.55249	3.57524	3.58331	3.58784	3.59528	3.59841	3.60405	3.60805	3.60873	3.59512	3.54712	3.51273	3.48021	3.44775	3.41577	3.38663	3.35541	3.33115	3.30749	3.28917	3.27368	3.30571	3.32639	3.33369	3.35466	3.36947	3.4094	3.43691	3.46269	3.4625	3.4641	3.46647	3.46914	3.47386	3.47699	3.48384	3.4892	3.47875	3.47911	3.48264	3.48637	3.48998	3.49585	3.49808	3.50853	3.5169	3.54516	3.57095	3.63066	3.65272	3.6298	3.60261	3.56586	3.56077	3.55466	3.55215	3.55133	3.55341	3.55869	3.62491	3.57828	3.53672	3.50804	3.46048	3.42135	3.42509	3.43656	3.40325	3.33043	3.25281	3.16145	3.09146	3.07714	3.15835	3.20583	3.28143	3.36366	3.45285	3.54225	3.63207	3.72487	3.76038	3.73241	3.685	3.68698	3.65278	3.65859	3.65753	3.6753	3.69658	3.7553	3.80455	3.84417	3.88154	3.91206	3.93166	3.9631	3.94916	3.89856	3.87205	3.84446	3.81638	3.78775	3.76239	3.74269	3.66776	3.59899	3.59806	3.63437	3.69818	3.78998	3.91222	4.03773	4.1708	4.24524	4.34675	4.26259	4.21136	4.17708	4.13158	4.05176	3.96902	3.95338	3.94697	3.95224	3.95723	3.97662	3.98013	3.98215	3.99599	4.00137	3.99604	3.99098	3.99835	3.9847	3.97348	3.92431	3.87018	3.80788	3.75384	3.69892	3.64761	3.60193	3.5551	3.51872	3.49877	3.47879	3.46083	3.44189	3.43553	3.42919	3.41982	3.41516	3.40903	3.40228	3.4031	3.40409	3.37585	3.39749	3.42337	3.44955	3.4813	3.51319	3.54931	3.58604	3.62422	3.65911	3.66314	3.67814	3.69744	3.71868	3.74905	3.7754	3.79089	3.80707	3.78778	3.7866	3.78477	3.76603	3.72598	3.69167	3.66169	3.62742	3.59805	3.56647	3.5399	3.51387	3.49217	3.47444	3.45935	3.45382	3.50828	3.53356	3.56374	3.59985	3.63732	3.64096	3.65056	3.65402	3.65438	3.67879	3.68422	3.6835	3.72269	3.74714	3.78059	3.80453	3.79813	3.77214	3.71067	3.64176	3.58875	3.48847	3.61043	3.7958	3.96141	4.01297	4.08263	4.15321	4.12309	4.09562	4.0517	4.01154	3.96057	3.92067	3.83873	3.76369	3.67465	3.60611	3.53816	3.55107	3.55826	3.57575	3.59864	3.62788	3.65939	3.70745	3.72427	3.7449	3.7432	3.72149	3.73278	3.74507	3.75735	3.77091	3.7788	3.77444	3.76601	3.74958	3.74866	3.73358	3.7198	3.70495	3.69058	3.67334	3.65684	3.63642	3.61728	3.59722	3.57948	3.55971	3.54157	3.52076	3.50217	3.48172	3.46866	3.45013	3.42801	3.41544	3.38979	3.389	3.39219	3.39932	3.41048	3.42562	3.44465	3.46742	3.49854	3.53335	3.55974	3.59191	3.59714	3.59983	3.60241	3.6091	3.61527	3.62341	3.63398	3.64748	3.65422	3.68799	3.7182	3.75934	3.80332	3.84138	3.87635	3.89747	3.92354	3.91642	3.90146	3.88955	3.88293	3.86852	3.85686	3.84264	3.83242	3.81926	3.78132	3.72706	3.67259	3.62244	3.57181	3.52195	3.48724	3.45381	3.47285	3.48585	3.51232	3.54395	3.57911	3.61566	3.65204	3.68969	3.72895	3.75516	3.76037	3.76292	3.74422	3.73352	3.67731	3.6393	3.57712	3.50063
0	20	3.22326	3.49949	3.80221	3.92718	4.01309	4.03523	4.03863	4.02036	4.01699	3.94349	3.8539	3.771	3.6932	3.62293	3.55693	3.50045	3.43782	3.35051	3.33018	3.33351	3.3426	3.34938	3.38566	3.42743	3.47199	3.52131	3.57171	3.6245	3.67679	3.7287	3.77923	3.82541	3.86373	3.897	3.93043	3.94503	3.94646	3.9416	3.93736	3.90967	3.86133	3.80874	3.75541	3.70217	3.64852	3.59505	3.54449	3.49869	3.46481	3.46782	3.40639	3.44868	3.52514	3.60543	3.66489	3.74343	3.7767	3.82859	3.76175	3.80065	3.80055	3.80754	3.78855	3.77071	3.74348	3.71439	3.68409	3.65269	3.59698	3.53926	3.48671	3.44593	3.40814	3.3944	3.37702	3.38605	3.39526	3.43696	3.49148	3.56786	3.68733	3.80008	3.92493	3.9249	3.92433	3.92974	3.96152	3.96493	3.86957	3.76055	3.52968	3.33877	3.53671	3.438	3.19909	3.14059	3.22148	3.28588	3.3614	3.43663	3.51124	3.58068	3.63789	3.70859	3.69597	3.66285	3.63877	3.5989	3.56319	3.52929	3.49934	3.4747	3.45456	3.43884	3.43347	3.45959	3.48539	3.5002	3.5261	3.55597	3.58789	3.59149	3.56479	3.55926	3.56876	3.56217	3.58309	3.61186	3.65357	3.69756	3.73498	3.77689	3.71937	3.56532	3.39433	3.35062	3.34702	3.37371	3.38088	3.43581	3.55061	3.69501	3.82036	3.87272	3.8761	3.87065	3.85283	3.81831	3.80295	3.7807	3.7643	3.74163	3.69743	3.6217	3.55546	3.50501	3.49097	3.48769	3.49592	3.50713	3.52849	3.54442	3.55542	3.57975	3.65308	3.68655	3.71362	3.68536	3.66319	3.67763	3.69053	3.71328	3.73326	3.75838	3.78002	3.80457	3.81646	3.83781	3.85609	3.85332	3.83802	3.83558	3.83668	3.83787	3.84387	3.83883	3.86471	3.8994	3.91198	3.92018	3.88303	3.84409	3.80166	3.75913	3.71437	3.71691	3.68612	3.69779	3.67942	3.72124	3.754	3.80568	3.84911	3.86652	3.86787	3.78317	3.7541	3.7451	3.75889	3.78074	3.79858	3.83003	3.80801	3.72038	3.62637	3.56368	3.50312	3.57173	3.63269	3.7401	3.8711	3.92557	3.99245	3.97458	3.96558	3.94035	3.9251	3.85013	3.81551	3.7926	3.78859	3.78224	3.77663	3.77794	3.77594	3.78326	3.7927	3.80752	3.80947	3.82871	3.85246	3.87972	3.90791	3.91269	3.90384	3.84321	3.75344	3.68352	3.60629	3.53389	3.47026	3.40641	3.35277	3.28565	3.30605	3.44449	3.54523	3.63754	3.72883	3.74482	3.78313	3.83836	3.79744	3.76944	3.75561	3.76719	3.66923	3.52841	3.37998	3.25101	3.11972	2.99069	2.96485	2.87898	2.92797	2.99595	3.06438	3.14891	3.23851	3.32682	3.42215	3.51916	3.6202	3.71455	3.8061	3.91003	3.8971	3.85973	3.81333	3.76896	3.73622	3.68605	3.73876	3.7547	4.04026	4.09263	4.08626	4.07924	4.069	4.05603	4.04351	4.02205	3.99554	3.96496	3.92868	3.86435	3.86818	3.83557	3.80272	3.79507	3.797	3.80211	3.82028	3.82435	3.84269	3.85478	3.85392	3.85434	3.85536	3.85413	3.85492	3.85314	3.82591	3.80721	3.817	3.81258	3.8356	3.83621	3.81801	3.8041	3.77805	3.74856	3.71457	3.67542	3.59951	3.55269	3.64049	3.63586	3.59712	3.58314	3.59584	3.64593	3.73593	3.841	3.84369	3.6839	3.48942	3.46432	3.4373	3.41845	3.45158	3.50596	3.53576	3.56985	3.60792	3.64935	3.69072	3.71498	3.4884	3.54149	3.59348	3.64776	3.69756	3.74406	3.78734	3.82844	3.86502	3.89373	3.90941	3.92856	3.94033	3.9721	3.98621	4.00706	4.03662	4.02245	3.98541	3.95592	3.89985	3.78523	3.69534	3.6423	3.64993	3.68507	3.77824	3.91029	3.88695	3.86584	3.84196	3.82036	3.79779	3.77265	3.70252	3.62591	3.55977	3.47982	3.40939	3.3749	3.39185	3.48118	3.52701	3.6275	3.6535	3.68513	3.70429	3.70248	3.64404	3.54179	3.53503	3.5651	3.68042	3.65387	3.64116	3.62403	3.65611	3.67895	3.70488	3.77784	3.75723	3.74791	3.79598	3.80095	3.80912	3.81679	3.82638	3.84872	3.85336	3.90939	3.92065	3.88005	3.83496	3.78128	3.74912	3.69982	3.65897	3.61791	3.57537	3.53035	3.54368	3.61291	3.65463	3.71722	3.79186	3.87672	3.97171	4.04256	4.10899	4.08689	4.11245	4.10674	4.10742	4.08042	4.03011	4.00491	4.01282	4.04495	4.1002	4.16138	4.24128	4.34301	4.45358	4.44637	4.48685	4.54976	4.59966	4.6473	4.69357	4.76453	4.86002	4.99158	5.12754	5.10329	5.10959	5.1504	5.19702	5.41812	5.50869	5.65618	5.81993	6.02423	6.2933	6.53724	6.92713	7.29756	7.77975	8.43049	9.06365	9.82102	10.8134	12.0326	13.5059	15.2921	17.7298	20.4266	23.9317	28.2074	36.7455	43.0325	53.4681	57.9828	64.3187	65.1502	58.0858	47.8341	38.067	32.0988	26.7836	22.4963	18.7842	15.573	13.465	12.0438	11.2335	10.4881	9.58507	8.69573	6.7747	5.86587	6.83168	6.8528	6.52444	6.23754	6.0283	5.84978	5.72547	5.3807	5.24016	5.10127	5.05255	4.98365	4.91692	4.84877	4.79021	4.73508	4.68363	4.63551	4.60237	4.55173	4.51	4.45117	4.41733	4.38771	4.33934	4.29122	4.24519	4.19948	4.15722	4.11606	4.07846	4.05098	4.02364	3.99923	3.99884	4.02201	4.03679	4.02802	3.96881	3.92978	3.89934	3.87595	3.87977	3.88573	3.90946	3.92165	3.92112	3.87939	3.71943	3.49091	3.264	3.40392	3.52122	3.57297	3.6284	3.68015	3.75306	3.771	3.77555	3.73669	3.72499	3.74495	3.75186	3.75789	3.7766	3.80022	3.83286	3.8688	3.88831	3.89543	3.90414	3.9126	3.9153	3.93278	3.92899	3.93101	3.92527	3.92306	3.92232	3.9017	3.86233	3.8238	3.81344	3.80767	3.79769	3.79091	3.78418	3.75645	3.72032	3.68374	3.66796	3.6593	3.66844	3.64569	3.61684	3.61758	3.61887	3.60864	3.58679	3.58283	3.58981	3.59718	3.61274	3.6178	3.59455	3.56663	3.52354	3.49485	3.46806	3.44582	3.44108	3.415	3.41166	3.39148	3.42457	3.49742	3.57991	3.60932	3.60399	3.59731	3.58899	3.57934	3.57025	3.54003	3.52474	3.5209	3.51771	3.49446	3.46681	3.44533	3.43049	3.42605	3.4335	3.56009	3.55686	3.52241	3.46617	3.42565	3.38303	3.33531	3.28068	3.22218	3.14763	3.10191	3.08789	3.08843	3.11382	3.15032	3.20043	3.26856	3.35043	3.39845	3.46117	3.46115	3.43906	3.33918	3.22201	3.23053	3.2743	3.31578	3.35652	3.36098	3.36002	3.31816	3.34485	3.38384	3.39401	3.40049	3.41566	3.40536	3.44066	3.48892	3.57514	3.60869	3.63348	3.66571	3.69429	3.68867	3.69953	3.71051	3.70939	3.70726	3.71527	3.71781	3.71545	3.71002	3.71119	3.73858	3.7367	3.74387	3.73214	3.68472	3.66539	3.58297	3.57221	3.51439	3.5691	3.59925	3.70757	3.83279	3.83387	3.83351	3.83304	3.83017	3.79773	3.69899	3.55698	3.46689	3.48411	3.5024	3.50162	3.48508	3.48698	3.49388	3.4923	3.50818	3.51351	3.53447	3.55375	3.59079	3.63198	3.63919	3.6416	3.63423	3.62928	3.62286	3.6184	3.6126	3.60931	3.604	3.60138	3.59727	3.59577	3.59538	3.59763	3.59641	3.5957	3.58824	3.56666	3.54904	3.53322	3.54093	3.55221	3.56251	3.57809	3.56505	3.55212	3.53532	3.50978	3.48969	3.46911	3.44632	3.42792	3.41245	3.38957	3.3762	3.36531	3.35654	3.39811	3.38848	3.37467	3.36351	3.37034	3.38346	3.38013	3.38085	3.41056	3.42396	3.43268	3.44925	3.4625	3.48156	3.49698	3.51911	3.53723	3.55704	3.57702	3.60337	3.62391	3.64496	3.66357	3.68283	3.69957	3.71626	3.73103	3.74414	3.75649	3.76091	3.73696	3.71276	3.68148	3.68159	3.68053	3.6784	3.67539	3.66952	3.67186	3.67941	3.68166	3.69814	3.71785	3.72506	3.7208	3.7083	3.6982	3.68452	3.6788	3.66045	3.65224	3.65522	3.64942	3.65392	3.63149	3.62153	3.6417	3.68698	3.68034	3.67538	3.67055	3.66719	3.66649	3.66281	3.66179	3.66117	3.65959	3.65282	3.65931	3.65109	3.66202	3.67392	3.68799	3.67073	3.62909	3.63233	3.63572	3.64618	3.64795	3.66752	3.68615	3.71012	3.73299	3.73068	3.72599	3.7065	3.68875	3.65187	3.6194	3.59616	3.57261	3.56489	3.5434	3.55183	3.54127	3.56455	3.60248	3.63287	3.66534	3.71196	3.65942	3.59973	3.55248	3.52192	3.51402	3.51275	3.57565	3.56412	3.54655	3.55568	3.5501	3.57878	3.57437	3.58664	3.64816	3.72142	3.71527	3.68083	3.66047	3.68183	3.69667	3.60094	3.49423	3.42578	3.43411	3.42862	3.47827	3.49092	3.49055	3.49436	3.51277	3.52184	3.54085	3.59151	3.62903	3.66069	3.67886	3.69638	3.72487	3.74389	3.74993	3.77991	3.80264	3.81002	3.80011	3.75941	3.6578	3.6375	3.61994	3.60475	3.59798	3.61929	3.62342	3.61129	3.62152	3.61957	3.62457	3.63129	3.66045	3.66185	3.65295	3.64295	3.63185	3.62039	3.60145	3.58024	3.56633	3.55127	3.53527	3.52127	3.50812	3.49447	3.48488	3.47736	3.47161	3.468	3.46611	3.46552	3.46803	3.47144	3.47772	3.48439	3.49332	3.51067	3.52018	3.51972	3.5069	3.48865	3.48112	3.47238	3.471	3.46374	3.46	3.42887	3.44047	3.45599	3.47604	3.49711	3.51961	3.54571	3.57027	3.60084	3.62689	3.65942	3.68628	3.71952	3.74646	3.77925	3.82139	3.84581	3.8742	3.90513	3.91643	3.90997	3.90492	3.89054	3.87837	3.8324	3.80046	3.70197	3.59805	3.50465	3.42563	3.36696	3.33803	3.31092	3.29936	3.30849	3.30192	3.30672	3.3109	3.31065	3.35836	3.3809	3.40923	3.44739	3.51402	3.57152	3.62399	3.62555	3.63899	3.63528	3.61956	3.57654	3.54092	3.49773	3.47845	3.24733
20	-20	3.88834	3.93594	3.9407	3.9367	3.82863	3.35483	3.20031	3.22901	3.27038	3.31513	3.36503	3.41139	3.44711	3.48468	3.51112	3.54009	3.56171	3.58439	3.60301	3.6218	3.63844	3.65567	3.66965	3.68351	3.69419	3.70423	3.71138	3.71336	3.71675	3.71458	3.71301	3.70321	3.69397	3.68238	3.67185	3.6595	3.64867	3.63628	3.61866	3.60907	3.59833	3.58953	3.57375	3.56686	3.55877	3.55311	3.54587	3.54238	3.5355	3.53102	3.52615	3.50116	3.4911	3.48429	3.46129	3.46875	3.48037	3.49641	3.51842	3.5415	3.56907	3.59874	3.63078	3.64516	3.64565	3.64124	3.61133	3.59886	3.5911	3.57832	3.5719	3.55561	3.52573	3.52486	3.52331	3.53364	3.52273	3.54471	3.54128	3.54209	3.5377	3.52668	3.52179	3.52509	3.51582	3.51178	3.5017	3.50102	3.50259	3.47031	3.44166	3.41231	3.3893	3.38413	3.41776	3.43365	3.45534	3.47965	3.52986	3.56072	3.58244	3.58051	3.58443	3.59326	3.6083	3.61998	3.63584	3.65261	3.6612	3.65713	3.64092	3.61071	3.58217	3.56159	3.54065	3.42226	3.36085	3.32677	3.30959	3.31058	3.32031	3.33343	3.31192	3.29006	3.26381	3.24567	3.22547	3.24975	3.27342	3.30382	3.32944	3.36471	3.40322	3.4393	3.47898	3.51817	3.48672	3.47721	3.45715	3.43988	3.43336	3.43539	3.42089	3.40886	3.48265	3.53081	3.53407	3.55579	3.56555	3.58264	3.5804	3.57738	3.44093	3.43837	3.45193	3.47309	3.49774	3.52756	3.56108	3.5963	3.63147	3.67109	3.70923	3.74961	3.7532	3.7131	3.67268	3.64841	3.62079	3.59776	3.57882	3.56311	3.54831	3.53587	3.5318	3.52711	3.54834	3.55463	3.57333	3.59449	3.61243	3.63467	3.65218	3.67443	3.6925	3.71364	3.73156	3.75058	3.76752	3.78141	3.79478	3.80644	3.80694	3.79395	3.76442	3.74695	3.72534	3.70092	3.67103	3.61554	3.58141	3.5453	3.50801	3.47066	3.4341	3.38993	3.31774	3.44385	3.47215	3.42623	3.42582	3.45648	3.48181	3.51316	3.52522	3.5461	3.55818	3.49123	3.58708	3.5663	3.57177	3.5736	3.54418	3.48527	3.40878	3.37192	3.37547	3.39677	3.4192	3.44715	3.50842	3.53668	3.55869	3.5949	3.62326	3.65695	3.69458	3.72782	3.77655	3.82469	3.8326	3.83836	3.85358	3.84511	3.81551	3.79282	3.76813	3.74112	3.71419	3.68652	3.66113	3.6413	3.62149	3.59695	3.59701	3.59612	3.5495	3.49543	3.44813	3.46265	3.49853	3.52678	3.56207	3.61145	3.66602	3.72347	3.78171	3.84373	3.83059	3.80582	3.92112	3.95152	4.00117	4.02381	3.95135	3.90559	3.89586	3.8942	3.9028	3.92177	3.95851	3.97855	3.97163	3.96398	3.95632	3.9375	3.9098	3.88254	3.85499	3.85334	3.84959	3.83605	3.79249	3.75227	3.72495	3.74078	3.7559	3.76636	3.77027	3.77006	3.76078	3.74567	3.72556	3.70566	3.70418	3.7273	3.75481	3.77695	3.80309	3.83115	3.77706	3.7138	3.65101	3.59151	3.53541	3.49323	3.46194	3.43794	3.43044	3.42709	3.42868	3.45134	3.4711	3.50425	3.53622	3.57024	3.60443	3.63928	3.66154	3.70666	3.73241	3.7518	3.77392	3.7941	3.81658	3.83692	3.87012	3.88581	3.90522	3.91248	3.92375	3.92971	3.92	3.92844	3.89983	3.8803	3.85175	3.80705	3.78043	3.74131	3.69286	3.55198	3.55729	3.56781	3.58025	3.69857	3.77789	3.85449	3.89893	3.90625	3.91963	3.93758	3.94208	3.93064	3.8388	3.77684	3.74138	3.73222	3.76421	3.76109	3.7468	3.72387	3.70981	3.69712	3.69056	3.68476	3.67884	3.67074	3.66185	3.65346	3.64563	3.63743	3.63157	3.62485	3.62403	3.6089	3.61522	3.62749	3.64551	3.66267	3.68301	3.70129	3.73147	3.75063	3.78019	3.78541	3.78894	3.78613	3.78093	3.77614	3.75809	3.72088	3.68385	3.64515	3.60442	3.56639	3.51348	3.4767	3.44303	3.41521	3.38983	3.36839	3.34486	3.37086	3.38189	3.39354	3.40524	3.42584	3.44829	3.47227	3.47124	3.46378	3.47466	3.48835	3.50609	3.52476	3.54597	3.56688	3.59013	3.61555	3.6414	3.66941	3.69785	3.7286	3.76081	3.79571	3.81844	3.82368	3.81988	3.79197	3.78038	3.77006	3.78105	3.84193	3.87569	3.87821	3.88831	3.88099	3.90597	3.90667	3.93171	3.95833	3.99292	4.03241	4.076	4.11686	4.18268	4.17775	4.15118	4.12199	4.09253	4.07761	4.04501	4.07271	4.09441	4.1339	4.17964	4.22733	4.28871	4.35067	4.43175	4.49146	4.53644	4.56794	4.5781	4.57687	4.57355	4.56281	4.56043	4.55874	4.56592	4.5858	4.62715	4.76087	4.91665	5.18818	5.50281	5.84307	6.1896	6.83837	7.57158	8.53656	9.64855	11.0771	12.7246	14.4196	16.7679	19.5707	22.1438	24.1392	25.6011	24.8936	21.8485	19.464	17.1257	14.3398	12.111	10.4659	9.46641	8.49877	7.65424	6.95588	6.36826	5.88625	5.51427	5.25024	5.1012	4.97754	4.89636	4.81707	4.74432	4.57424	4.50357	4.43488	4.33519	4.23898	4.15764	4.09441	4.04335	4.05296	4.06756	4.00869	3.92907	3.86364	3.82127	3.80679	3.78989	3.79603	3.82218	3.81946	3.75375	3.6707	3.52056	3.47111	3.4967	3.57779	3.65214	3.62965	3.6272	3.61754	3.62658	3.62867	3.64748	3.65648	3.65269	3.65162	3.65422	3.66844	3.64256	3.64034	3.64016	3.64324	3.65113	3.65784	3.66753	3.67531	3.68418	3.68795	3.69156	3.69073	3.68534	3.67715	3.6664	3.65198	3.61758	3.58777	3.55229	3.51676	3.47299	3.42846	3.39675	3.37011	3.36281	3.42597	3.48612	3.55973	3.63911	3.73244	3.86761	3.80999	3.69386	3.62079	3.54557	3.47739	3.48722	3.38152	3.34505	3.33097	3.34656	3.34683	3.36695	3.4325	3.44935	3.38986	3.30037	3.17423	3.15964	3.18616	3.21439	3.22937	3.27632	3.29216	3.30677	3.32684	3.34579	3.40283	3.44497	3.50079	3.55108	3.59617	3.62823	3.65183	3.65879	3.68895	3.69248	3.66662	3.64634	3.62162	3.58979	3.55133	3.51717	3.48027	3.44564	3.41765	3.38973	3.40195	3.39155	3.38839	3.38606	3.38696	3.38721	3.39035	3.38197	3.4001	3.42557	3.44914	3.47781	3.50472	3.53446	3.5645	3.59199	3.60741	3.60828	3.60997	3.6119	3.61467	3.61747	3.62117	3.63169	3.63627	3.59822	3.55058	3.50805	3.43038	3.30127	3.25758	3.21941	3.18927	3.21639	3.225	3.23753	3.25658	3.27355	3.29153	3.30963	3.32363	3.34444	3.33079	3.34559	3.3217	3.34176	3.35393	3.37072	3.38973	3.41088	3.43385	3.45649	3.4804	3.50422	3.53129	3.56468	3.59487	3.61828	3.64387	3.64128	3.64579	3.64479	3.64622	3.58275	3.55483	3.52361	3.49759	3.47594	3.45414	3.4577	3.48207	3.55697	3.59632	3.64462	3.69186	3.72419	3.74145	3.75916	3.78016	3.78797	3.77686	3.75965	3.74812	3.7278	3.70033	3.70469	3.71618	3.71388	3.72822	3.73428	3.69497	3.69041	3.68523	3.67856	3.62818	3.57615	3.53396	3.47536	3.41148	3.35664	3.36285	3.44429	3.47892	3.50074	3.53024	3.55431	3.58198	3.55373	3.52731	3.51169	3.50089	3.49116	3.48612	3.47922	3.48265	3.48863	3.48427	3.48919	3.45915	3.41078	3.33586	3.26796	3.22014	3.21761	3.26058	3.31197	3.38091	3.4584	3.53098	3.62971	3.74505	3.78701	3.82614	3.85199	3.83581	3.82903	3.8046	3.78665	3.74642	3.72669	3.69746	3.68803	3.68314	3.67704	3.67157	3.66048	3.66224	3.64344	3.62475	3.60353	3.5867	3.57657	3.54362	3.51021	3.47914	3.46519	3.43614	3.32889	3.26033	3.19289	3.13445	3.08604	3.05855	3.03949	3.09333	3.12688	3.19719	3.3002	3.40249	3.43237	3.3747	3.32054	3.27718	3.27432	3.25587	3.25952	3.34948	3.42253	3.51258	3.5939	3.59315	3.48579	3.42048	3.37558	3.36526	3.45144	3.50101	3.62892	3.63204	3.55643	3.48428	3.42836	2.00548	2.88306	3.48664	3.52685	3.57069	3.6137	3.65489	3.69936	3.72589	3.74942	3.46334	3.56921	3.64328	3.49479	3.48201	3.44018	3.39725	3.35859	3.39227	3.39179	3.38986	3.41473	3.45984	3.54623	3.60149	3.62752	3.65517	3.60314	3.54492	3.52376	3.49709	3.4755	3.45853	3.42529	3.35632	3.3255	3.31141	3.3187	3.316	3.31954	3.3092	3.34878	3.42585	3.49388	3.56589	3.63752	3.69834	3.72143	3.70886	3.69007	3.64349	3.6025	3.55605	3.50516	3.45734	3.42789	3.39141	3.36297	3.30392	3.32391	3.3499	3.37587	3.50116	3.57697	3.6233	3.58507	3.54393	3.5083	3.43567	3.39602	3.35779	3.32949	3.31218	3.29664	3.33544	3.36529	3.39017	3.43142	3.47329	3.51347	3.5556	3.59614	3.63154	3.63952	3.64339	3.6141	3.5927	3.56092	3.50565	3.44507	3.3346	3.1802	2.62149	2.88639	3.24515	3.76946	3.80467	3.79962	3.68561	3.49901	3.34265	3.33026	3.3167	3.24494	3.20916	3.2285	3.26305	3.30572	3.34856	3.3992	3.45092	3.43514	3.41504	3.43499	3.4266	3.43056	3.43321	3.43872	3.4408	3.44219	3.44619	3.44252	3.44312	3.4386	3.39221	3.3531	3.33152	3.31989	3.31713	3.31904	3.26203	3.20372	3.1461	3.09393	3.08058	3.14812	3.18759	3.23209	3.2695	3.29867	3.32966	3.33416	3.31147	3.26729	3.25485	3.24778	3.24093	3.23918	3.23634	3.23843	3.25802	3.28211	3.30192	3.32071	3.34663	3.3568	3.36795	3.3783	3.38587	3.39582	3.39844	3.40799	3.38557	3.3619	3.36701	3.37251	3.38044	3.38707	3.39769	3.40642	3.42074	3.42896	3.41947	3.40652	3.39391	3.38505	3.37558	3.38773	3.39681	3.41248	3.4352	3.45709	3.46924	3.48417	3.4457	3.38995	3.33845	3.28132	3.23456	3.17889	3.21093	3.24864	3.27318	3.28391	3.32535	3.35704	3.42324
20	0	3.60951	3.62965	3.65125	3.67436	3.69818	3.72196	3.74536	3.72993	3.70181	3.68444	3.67099	3.66137	3.64577	3.64842	3.65629	3.66747	3.68235	3.69362	3.71015	3.72902	3.74655	3.76166	3.77613	3.7862	3.79759	3.80668	3.81382	3.82058	3.80456	3.78674	3.76944	3.75129	3.7332	3.71507	3.69736	3.67802	3.66282	3.64402	3.62294	3.60612	3.59096	3.56913	3.56585	3.5632	3.56631	3.57051	3.57978	3.59038	3.60526	3.62142	3.61976	3.59126	3.55737	3.4588	3.47997	3.53157	3.59675	3.66557	3.73165	3.7941	3.83539	3.83719	3.83613	3.80279	3.77973	3.75681	3.73577	3.71	3.67962	3.66391	3.64872	3.64087	3.66016	3.67181	3.68001	3.69754	3.71	3.75041	3.7412	3.72519	3.71024	3.66585	3.62935	3.59618	3.54451	3.48897	3.48168	3.4792	3.47911	3.50229	3.52094	3.53229	3.55338	3.57312	3.59558	3.6174	3.64055	3.6626	3.6842	3.70546	3.72475	3.7454	3.76248	3.77226	3.78973	3.79743	3.80378	3.80747	3.81091	3.8115	3.81069	3.80456	3.80115	3.79682	3.78008	3.76362	3.74667	3.7257	3.70406	3.6789	3.6484	3.62349	3.59983	3.57461	3.551	3.52635	3.50322	3.48058	3.45949	3.44018	3.42213	3.4072	3.38824	3.37962	3.37174	3.37844	3.40279	3.42237	3.43976	3.46591	3.49497	3.52742	3.56988	3.62246	3.65357	3.68423	3.71426	3.74301	3.75845	3.70563	3.67794	3.66093	3.65078	3.63079	3.62113	3.61459	3.60819	3.60941	3.59753	3.58034	3.57615	3.57116	3.60697	3.61169	3.62691	3.63729	3.65811	3.67432	3.69968	3.6969	3.68967	3.68261	3.67267	3.65269	3.63098	3.61155	3.60458	3.59088	3.57483	3.56002	3.54546	3.52653	3.50926	3.50207	3.47912	3.45555	3.4436	3.43517	3.44354	3.46159	3.46985	3.48272	3.49487	3.50518	3.50689	3.51695	3.51944	3.54994	3.55559	3.57056	3.5352	3.52508	3.51331	3.47283	3.48527	3.50647	3.54189	3.57612	3.65318	3.70579	3.78046	3.80217	3.79294	3.73507	3.72913	3.73555	3.7465	3.76562	3.77984	3.81464	3.85257	3.86782	3.8838	3.89999	3.91937	3.93637	3.95819	3.89627	3.80628	3.70958	3.67032	3.62269	3.7089	3.75874	3.78335	3.78973	3.77484	3.742	3.69667	3.67649	3.66596	3.68183	3.69212	3.70845	3.73801	3.78197	3.81638	3.86941	3.91822	3.94617	3.92204	3.8843	3.85344	3.82403	3.79898	3.7781	3.80802	3.81182	3.8144	3.82303	3.82997	3.84725	3.83831	3.8265	3.81481	3.78294	3.74156	3.70292	3.66744	3.63542	3.60895	3.58471	3.56939	3.58417	3.60752	3.63152	3.65954	3.6891	3.72758	3.76708	3.77063	3.76062	3.75064	3.74118	3.72948	3.71817	3.71098	3.69917	3.69141	3.64433	3.59369	3.57625	3.60777	3.68557	3.6975	3.70478	3.72922	3.75314	3.80588	3.83901	3.88204	3.87982	3.84394	3.80291	3.78705	3.77768	3.76995	3.76011	3.76693	3.78677	3.82931	3.83665	3.84524	3.84058	3.81111	3.77313	3.74047	3.70609	3.684	3.66915	3.64932	3.63443	3.60954	3.59304	3.57678	3.56338	3.5521	3.5411	3.53369	3.5244	3.51939	3.52193	3.52023	3.51673	3.51034	3.50836	3.50788	3.50592	3.50235	3.4992	3.49358	3.49011	3.48524	3.48162	3.47765	3.47403	3.40916	3.31402	3.25983	3.40075	3.46135	3.44727	3.44633	3.45142	3.4596	3.46915	3.48393	3.49402	3.51754	3.55419	3.59398	3.64145	3.71384	3.76425	3.81845	3.85224	3.88076	3.91067	3.93551	3.95928	3.95133	3.94248	3.93885	3.90855	3.88174	3.86573	3.8557	3.84525	3.83622	3.83333	3.82836	3.81929	3.81561	3.79473	3.76587	3.7405	3.7159	3.69966	3.68172	3.67699	3.66814	3.67026	3.67459	3.67942	3.6459	3.65601	3.68208	3.63905	3.56113	3.53965	3.52693	3.51936	3.54479	3.57494	3.64191	3.72574	3.80258	3.8659	3.92318	3.98591	4.05223	4.0918	4.08501	4.05635	3.96856	3.8762	3.77841	3.69206	3.60132	3.60875	3.57512	3.55653	3.57813	3.58992	3.6023	3.60705	3.62309	3.64793	3.67306	3.7045	3.73213	3.75862	3.76905	3.76726	3.76979	3.77099	3.7623	3.69872	3.63845	3.56781	3.50976	3.4546	3.3868	3.3535	3.3276	3.31379	3.34802	3.36961	3.47423	3.54028	3.61717	3.69494	3.67128	3.64695	3.62601	3.60732	3.59269	3.58021	3.60628	3.59919	3.61415	3.624	3.63549	3.64752	3.66575	3.68928	3.71297	3.74499	3.77559	3.81533	3.84735	3.89866	3.94492	4.00321	4.05911	4.12368	4.1801	4.20069	4.20468	4.2096	4.22409	4.24389	4.28937	4.35082	4.44315	4.57004	4.82522	5.02257	5.29704	5.66315	5.92081	6.5226	7.19245	7.89477	8.81732	9.91765	11.2492	13.1823	14.3649	15.0151	14.6714	14.161	12.8269	11.6612	10.3934	9.07235	7.95516	7.02562	6.16922	5.59035	5.33317	4.9544	4.81514	4.71647	4.64044	4.57526	4.52923	4.50349	4.49248	4.46827	4.37987	4.34622	4.32465	4.30503	4.2678	4.24427	4.21405	4.18521	4.13909	4.09546	4.05752	4.022	3.98559	3.9413	3.87947	3.81621	3.75931	3.68204	3.61065	3.50264	3.42276	3.32579	3.45263	3.58689	3.64442	3.70793	3.70833	3.70402	3.69101	3.68209	3.67281	3.66483	3.65609	3.64717	3.64008	3.63147	3.62735	3.61748	3.61941	3.61782	3.60578	3.6311	3.65629	3.68214	3.72187	3.73421	3.74082	3.71382	3.68158	3.6488	3.61553	3.58162	3.54672	3.51103	3.47129	3.44068	3.41261	3.39015	3.36651	3.34083	3.30924	3.3066	3.30976	3.31645	3.32703	3.34104	3.3591	3.37783	3.43714	3.47433	3.51234	3.55047	3.572	3.58567	3.60088	3.61466	3.62787	3.64187	3.65241	3.62174	3.59825	3.58787	3.57957	3.5757	3.57218	3.56952	3.57258	3.57432	3.58034	3.5873	3.6225	3.64663	3.66313	3.68705	3.71042	3.73491	3.7567	3.7804	3.79938	3.82089	3.83793	3.85561	3.86943	3.86844	3.84314	3.77316	3.75337	3.73285	3.71492	3.69877	3.68528	3.64867	3.61343	3.56208	3.49851	3.43021	3.36664	3.29732	3.23977	3.18636	3.1663	3.21597	3.31646	3.39784	3.47687	3.55881	3.64315	3.68635	3.72359	3.75851	3.75885	3.76007	3.74929	3.7294	3.71142	3.68703	3.66729	3.63962	3.62542	3.6048	3.56258	3.5285	3.49669	3.48305	3.45955	3.44131	3.42103	3.40524	3.3912	3.39987	3.49651	3.60808	3.78378	3.55077	3.53167	3.51683	3.46604	3.44747	3.4198	3.39573	3.37871	3.38187	3.38875	3.39157	3.39942	3.441	3.48407	3.53387	3.59905	3.65768	3.67772	3.68512	3.66879	3.64666	3.62978	3.59644	3.58412	3.53639	3.4922	3.4546	3.41304	3.37391	3.34699	3.32029	3.30784	3.29316	3.35771	3.3659	3.37687	3.37682	3.36538	3.43517	3.46681	3.5036	3.53587	3.53144	3.51514	3.45969	3.43783	3.44699	3.46229	3.47895	3.48691	3.48838	3.51167	3.51979	3.48412	3.46372	3.43401	3.41847	3.42891	3.48866	3.52032	3.55913	3.59833	3.63453	3.66282	3.69812	3.70808	3.67307	3.65798	3.61355	3.57916	3.53617	3.49638	3.45245	3.41478	3.37783	3.3683	3.4085	3.46326	3.51031	3.56364	3.63007	3.68083	3.67765	3.67414	3.66937	3.66338	3.65786	3.65128	3.63992	3.64432	3.63375	3.59487	3.60253	3.61241	3.60845	3.60794	3.60608	3.6358	3.62382	3.61791	3.5879	3.58852	3.58207	3.58322	3.58338	3.59084	3.59907	3.58756	3.60381	3.5974	3.59743	3.61536	3.6312	3.63976	3.65423	3.66555	3.68612	3.68856	3.68133	3.65718	3.64851	3.6437	3.64346	3.67548	3.65265	3.64537	3.63575	3.62327	3.61412	3.60643	3.59816	3.59345	3.58557	3.57803	3.58266	3.57197	3.56461	3.55369	3.54582	3.55021	3.55416	3.55136	3.53611	3.52325	3.51544	3.49178	3.46553	3.43988	3.41263	3.38672	3.35748	3.33325	3.30811	3.2884	3.27169	3.23358	3.24271	3.25334	3.26908	3.28424	3.34118	3.37721	3.4232	3.45899	3.493	3.52957	3.55938	3.58461	3.61178	3.63266	3.63426	3.6446	3.6539	3.66042	3.66457	3.62652	3.59041	3.54992	3.49071	3.42307	3.20803	3.02502	3.4716	3.55493	3.60983	3.65545	3.69047	3.69213	3.69606	3.69807	3.70257	3.70558	3.7108	3.71414	3.71897	3.72166	3.71344	3.68162	3.65066	3.6238	3.60094	3.58212	3.56711	3.55489	3.54671	3.54088	3.54032	3.53879	3.54134	3.54334	3.54817	3.55309	3.27576	2.56351	3.46803	3.58388	3.59225	3.60266	3.61113	3.62233	3.63257	3.64213	3.66822	3.67247	3.67882	3.68232	3.68722	3.69003	3.69322	3.69398	3.68245	3.66999	3.65671	3.6438	3.62774	3.61371	3.5947	3.57728	3.5709	3.5685	3.57133	3.57863	3.58472	3.6346	3.67412	3.73739	3.73218	3.72258	3.71225	3.69975	3.68565	3.63795	3.61724	3.59385	3.5746	3.55449	3.53729	3.51844	3.5002	3.48942	3.48443	3.4783	3.47175	3.46259	3.4644	3.46483	3.46292	3.46629	3.47295	3.47951	3.48966	3.49665	3.5045	3.51335	3.5202	3.54519	3.55049	3.55463	3.55678	3.56015	3.56476	3.56296	3.55224	3.56504	3.57041	3.58368	3.58644	3.5454	3.49653	3.45639	3.3915	3.32767	3.26733	3.1998	3.23199	3.33897	3.39252	3.45281	3.51174	3.5773	3.64485	3.62421	3.59204	3.56239	3.52917	3.49612	3.46754	3.44047	3.41189	3.37617	3.36666	3.35776	3.35267	3.37772	3.39304	3.41075	3.43021	3.45936	3.47065	3.48534	3.49221	3.50159	3.50604	3.50774	3.46437	3.4555	3.43102	3.40152	3.38334	3.37814	3.36876	3.36796	3.3941	3.40136	3.42562	3.44414	3.46407	3.44463	3.39002	3.3731	3.35027	3.3258	3.2927	3.25003	3.17897	3.12444	3.11829	3.15695	3.23526	3.415	3.62211
20	20	3.24736	3.52788	3.57531	3.61584	3.6332	3.65462	3.66177	3.67435	3.69174	3.68719	3.67763	3.66905	3.65431	3.64086	3.62065	3.60265	3.58308	3.57158	3.55712	3.54631	3.54099	3.53865	3.53553	3.54811	3.57106	3.59575	3.64383	3.69515	3.7314	3.63362	3.53914	3.44941	3.36518	3.28602	3.25942	3.17962	3.21837	3.26277	3.31243	3.35791	3.41697	3.47985	3.54281	3.55532	3.58207	3.56461	3.5218	3.54125	3.55674	3.57124	3.58964	3.60527	3.61551	3.67927	3.7629	3.83258	3.87421	3.88796	3.90126	3.85697	3.78132	3.74101	3.67847	3.618	3.55169	3.48807	3.42474	3.36191	3.30158	3.24512	3.20035	3.1644	3.17256	3.27894	3.38334	3.50945	3.61927	3.70933	3.7025	3.6998	3.69195	3.70039	3.69945	3.70184	3.69618	3.70036	3.70662	3.71747	3.72252	3.70563	3.62889	3.49975	3.48374	3.53039	3.56958	3.61786	3.63856	3.65097	3.66438	3.67155	3.6825	3.68806	3.67096	3.6196	3.56611	3.52219	3.49211	3.45622	3.43224	3.41056	3.39528	3.42054	3.44348	3.45119	3.47505	3.4669	3.46919	3.41739	3.36455	3.3137	3.26578	3.22068	3.24645	3.26893	3.29604	3.32567	3.32486	3.35165	3.41408	3.46186	3.52267	3.5572	3.60498	3.61038	3.62377	3.48727	3.38738	3.28	3.55598	3.49807	3.42884	3.36807	3.30695	3.1519	3.19123	3.07308	3.06928	3.07017	3.12182	3.17908	3.22047	3.28153	3.32359	3.36801	3.41719	3.47013	3.5021	3.53394	3.55932	3.58386	3.60454	3.61052	3.60045	3.58894	3.59139	3.54322	3.55489	3.56662	3.58124	3.59669	3.60907	3.62845	3.62767	3.6304	3.63157	3.63248	3.63559	3.6344	3.60145	3.59382	3.59498	3.59426	3.63898	3.65302	3.68719	3.70874	3.73457	3.75557	3.77918	3.7981	3.81816	3.83674	3.85098	3.8587	3.8523	3.783	3.78824	3.80257	3.81716	3.83447	3.85446	3.87703	3.9183	3.89856	3.88146	3.86	3.89584	3.90323	3.87487	3.8334	3.7643	3.68631	3.59629	3.53593	3.50385	3.46246	3.48516	3.49361	3.52558	3.58021	3.66455	3.71833	3.78184	3.82069	3.84843	3.85825	3.85777	3.8427	3.81876	3.78231	3.74662	3.71003	3.67055	3.63889	3.60459	3.58113	3.55895	3.56956	3.53617	3.45167	3.44787	3.44697	3.45224	3.47005	3.57187	3.61368	3.66302	3.71159	3.7657	3.81736	3.81381	3.7534	3.71173	3.68942	3.66273	3.67972	3.74923	3.85275	3.92506	3.95546	3.8915	3.78324	3.61895	3.37217	3.57689	3.53868	3.4976	3.4625	3.43724	3.41712	3.4018	3.39209	3.40369	3.42163	3.44639	3.45503	3.51189	3.57423	3.64678	3.72067	3.79341	3.87126	3.93761	3.98601	3.96036	3.88565	3.77321	3.59983	3.42718	3.24357	2.995	2.626	3.26031	3.37266	3.45328	3.53615	3.62396	3.6857	3.66481	3.64445	3.63485	3.58764	3.51856	3.44648	3.37978	3.32447	3.24574	3.22034	3.23156	3.30837	3.38151	3.4577	3.52663	3.61129	3.70092	3.78781	3.81302	3.78771	3.76944	3.7457	3.73265	3.72432	3.71513	3.69885	3.70214	3.70849	3.70868	3.7157	3.72231	3.72751	3.74354	3.75796	3.768	3.78525	3.79927	3.81866	3.84259	3.85752	3.89473	3.95008	3.96503	3.97726	3.98543	3.98801	3.99851	4.00002	3.97568	3.93042	3.88961	3.85433	3.81629	3.78481	3.7535	3.73137	3.74151	3.79538	3.83475	3.87966	3.88498	3.88412	3.88478	3.88722	3.89143	3.89735	3.90495	3.94181	3.95432	3.96943	3.98263	3.98447	3.95543	3.92494	3.89794	3.86843	3.84389	3.8413	3.81829	3.81647	3.78078	3.76238	3.71744	3.67803	3.63676	3.59466	3.55642	3.5139	3.48007	3.44031	3.40701	3.37786	3.34561	3.32951	3.30201	3.31311	3.37798	3.418	3.48124	3.54031	3.61862	3.68779	3.71213	3.69748	3.67911	3.62879	3.64517	3.6701	3.69842	3.73186	3.83538	3.89822	3.95434	3.98692	3.98781	3.98858	3.9891	3.99856	3.97711	3.90609	3.79114	3.69035	3.58495	3.53014	3.47569	3.48245	3.50237	3.54831	3.60551	3.65117	3.69378	3.74772	3.72804	3.68585	3.64965	3.61266	3.58415	3.57737	3.56377	3.56173	3.55721	3.55589	3.55252	3.55589	3.56078	3.56471	3.57223	3.57947	3.58849	3.59812	3.60792	3.61941	3.63096	3.64455	3.65805	3.67324	3.68817	3.70436	3.71996	3.73516	3.74974	3.76346	3.77545	3.77176	3.72577	3.6528	3.62102	3.62576	3.61928	3.63002	3.64701	3.6618	3.68671	3.71146	3.73824	3.75932	3.77075	3.78068	3.79085	3.80415	3.79965	3.78888	3.77915	3.77441	3.77562	3.76548	3.76196	3.76217	3.75778	3.75444	3.73854	3.77874	3.81631	3.86427	3.90233	3.97333	4.04596	4.122	4.23961	4.31614	4.39238	4.47134	4.51691	4.55152	4.57711	4.50754	4.43932	4.35838	4.26744	4.17855	4.07738	3.98424	3.87922	3.7907	3.74808	3.75119	3.75438	3.764	3.79916	3.82172	3.84952	3.87658	3.92594	3.9534	3.95937	3.95626	3.92498	3.91451	3.89598	3.85822	3.83255	3.80054	3.77556	3.75239	3.72705	3.70846	3.67941	3.65898	3.6138	3.57156	3.51301	3.4552	3.43849	3.42262	3.41322	3.48604	3.52369	3.55761	3.60581	3.65772	3.68548	3.77203	3.7527	3.72695	3.66518	3.62658	3.58946	3.5298	3.47174	3.42425	3.37333	3.33668	3.29643	3.21198	3.22116	3.22823	3.28357	3.32503	3.37783	3.42194	3.47015	3.51899	3.5668	3.61749	3.66272	3.71259	3.75238	3.77123	3.7826	3.79881	3.8071	3.7987	3.80476	3.82089	3.8293	3.84497	3.84154	3.8307	3.82211	3.80981	3.79746	3.78467	3.76939	3.75733	3.74195	3.68658	3.62974	3.58503	3.54948	3.53284	3.53729	3.58179	3.60554	3.63582	3.65002	3.65072	3.65159	3.65745	3.65819	3.66565	3.67266	3.68019	3.67629	3.63131	3.58166	3.53633	3.48522	3.44387	3.39905	3.36316	3.32932	3.33504	3.32729	3.37033	3.41329	3.45183	3.48228	3.51615	3.54474	3.57649	3.60765	3.59101	3.57661	3.56116	3.55081	3.54725	3.50471	3.47193	3.47402	3.46103	3.44356	3.38753	3.32995	3.3024	3.29962	3.32403	3.3609	3.40363	3.45263	3.50004	3.55005	3.58511	3.64	3.63051	3.60067	3.55391	3.4774	3.45908	3.43526	3.42039	3.38554	3.38449	3.38456	3.41823	3.4583	3.48659	3.49816	3.50394	3.5171	3.49971	3.49898	3.4815	3.48161	3.4837	3.4879	3.50026	3.50837	3.52062	3.50751	3.49733	3.48025	3.48029	3.4734	3.47818	3.48929	3.4892	3.51622	3.53752	3.56505	3.58914	3.62084	3.64897	3.67847	3.68551	3.68723	3.68298	3.67938	3.66638	3.12211	1.73361	3.74076	3.72159	3.71236	3.69049	3.67715	3.66968	3.66069	3.65619	3.65179	3.62652	3.60445	3.59787	3.62247	3.65762	3.67136	3.68484	3.6933	3.70276	3.70852	3.70128	3.68999	3.67847	3.66602	3.65724	3.65115	3.62681	3.63114	3.62939	3.63422	3.63863	3.64817	3.65351	3.62909	3.60555	3.57843	3.54308	3.52016	3.49317	3.47087	3.45285	3.43412	3.41739	3.40406	3.43309	3.43154	3.43037	3.431	3.43335	3.43536	3.43974	3.44369	3.44616	3.45054	3.42868	3.42328	3.41724	3.42124	3.42402	3.43297	3.44114	3.45441	3.46606	3.48234	3.49705	3.51627	3.53705	3.56468	3.57913	3.59872	3.62069	3.63949	3.65407	3.67034	3.6842	3.68008	3.67033	3.68472	3.69866	3.70127	3.70457	3.71099	3.69843	3.71138	3.72057	3.73586	3.74751	3.78317	3.78538	3.78676	3.78617	3.78398	3.78041	3.77408	3.76743	3.75651	3.74691	3.73217	3.71992	3.68083	3.6375	3.59561	3.54723	3.52372	3.50446	3.50652	3.5099	3.49525	3.48815	3.47743	3.4701	3.4304	3.39484	3.35944	3.32589	3.29406	3.2697	3.23606	3.26151	3.30038	3.4987	3.57564	3.62726	3.65897	3.66583	3.6607	3.66889	3.68186	3.68891	3.69693	3.70678	3.71275	3.71937	3.73368	3.74188	3.7473	3.74448	3.74286	3.75305	3.72061	3.68594	3.65457	3.62449	3.59562	3.57085	3.53303	3.50455	3.46688	3.46055	3.45211	3.44189	3.46573	3.49624	3.52658	3.55276	3.56438	3.57788	3.60026	3.63818	3.64577	3.65629	3.67089	3.68123	3.65637	3.61112	3.59411	3.58704	3.5724	3.58275	3.56782	3.6118	3.64159	3.67945	3.71349	3.74669	3.77899	3.80586	3.78953	3.7963	3.80007	3.80533	3.81368	3.78465	3.76474	3.72441	3.73389	3.71965	3.70194	3.68342	3.66533	3.66943	3.65882	3.65774	3.64004	3.62761	3.61932	3.60865	3.59896	3.59579	3.59365	3.58992	3.58294	3.58991	3.58738	3.58817	3.56893	3.54946	3.53163	3.5132	3.49951	3.4834	3.47202	3.47012	3.46812	3.46544	3.46458	3.45725	3.45669	3.47275	3.48089	3.49504	3.50666	3.52316	3.53858	3.55914	3.58056	3.6009	3.61986	3.64059	3.6614	3.68853	3.70566	3.72396	3.74065	3.75557	3.76878	3.77881	3.7886	3.77871	3.7673	3.75482	3.74442	3.73178	3.7256	3.71658	3.70598	3.68198	3.6829	3.68539	3.74033	3.7682	3.76051	3.76984	3.77847	3.80747	3.82979	3.83402	3.8288	3.76985	3.73836	3.70532	3.64973	3.54368	3.45586	3.37516	3.35092	3.3032	3.28181	3.28012	3.2815	3.32077	3.37549	3.43202	3.48735	3.54428	3.60879	3.66396	3.68811	3.70699	3.7256	3.73874	3.74137	3.72905	3.71847	3.70796	3.6881	3.68227	3.6664	3.6598	3.6484	3.63694	3.63856	3.63913	3.64108	3.64336	3.63942	3.66058	3.69619	3.7267	3.76269	3.78348	3.80064	3.80421	3.80403	3.80548	3.80335	3.80323	3.79689	3.74789	3.69333	3.64295	3.59296	3.55275	3.5059	3.47342	3.44842	3.47602	3.49399	3.52097	3.54515	3.58203	3.56695	3.52745	3.48504	3.44486	3.36377	3.28906
